FP1-F7,F7-T7,T7-P7,P7-O1,FP1-F3,F3-C3,C3-P3,P3-O1,FP2-F4,F4-C4,C4-P4,P4-O2,FP2-F8,F8-T8,T8-P8,P8-O2,FZ-CZ,CZ-PZ,P7-T7,T7-FT9,FT9-FT10,FT10-T8,T8-P8
-45.51892551892552,-13.47985347985348,11.135531135531135,13.870573870573871,10.354090354090355,-28.327228327228326,-1.7582417582417582,-14.261294261294262,140.46398046398048,-120.92796092796092,-51.37973137973138,-11.526251526251526,-58.02197802197802,-101.39194139194139,50.20757020757021,65.83638583638583,-61.14774114774115,-30.671550671550673,-10.744810744810744,-7.619047619047619,-84.2002442002442,-0.19536019536019536,50.20757020757021
-52.55189255189255,-20.12210012210012,6.446886446886447,10.354090354090355,3.711843711843712,-36.92307692307692,-2.5396825396825395,-19.731379731379732,144.37118437118437,-126.007326007326,-59.584859584859586,-18.55921855921856,-46.69108669108669,-100.61050061050061,23.247863247863247,63.88278388278388,-71.30647130647131,-34.57875457875458,-6.056166056166056,-3.711843711843712,-66.22710622710623,0.5860805860805861,23.247863247863247
-56.45909645909646,-19.34065934065934,4.493284493284493,3.711843711843712,-0.19536019536019536,-39.65811965811966,-8.791208791208792,-18.168498168498168,144.76190476190476,-129.52380952380952,-65.05494505494505,-31.062271062271062,-51.37973137973138,-85.76312576312576,4.102564102564102,51.37973137973138,-81.07448107448107,-42.002442002442,-4.102564102564102,-12.698412698412698,-48.25396825396825,6.056166056166056,4.102564102564102
-51.77045177045177,-24.81074481074481,1.3675213675213675,-0.9768009768009768,-6.056166056166056,-36.92307692307692,-14.652014652014651,-18.168498168498168,144.76190476190476,-133.82173382173383,-67.00854700854701,-35.75091575091575,-50.598290598290596,-78.33943833943835,-13.870573870573871,51.77045177045177,-88.4981684981685,-42.78388278388278,-0.9768009768009768,-15.042735042735043,-37.313797313797316,7.228327228327228,-13.870573870573871
-67.78998778998779,-11.526251526251526,0.5860805860805861,-2.5396825396825395,-3.711843711843712,-42.39316239316239,-13.089133089133089,-21.684981684981686,143.98046398046398,-134.21245421245422,-68.18070818070818,-38.095238095238095,-36.92307692307692,-75.21367521367522,-38.876678876678874,54.505494505494504,-93.57753357753357,-42.78388278388278,-0.19536019536019536,-10.354090354090355,-21.684981684981686,8.4004884004884,-38.876678876678874
-70.13431013431014,-9.572649572649572,-0.19536019536019536,-3.711843711843712,-5.274725274725275,-46.3003663003663,-14.652014652014651,-17.77777777777778,138.5103785103785,-133.82173382173383,-74.04151404151405,-40.04884004884005,-31.45299145299145,-69.74358974358974,-60.757020757020754,53.333333333333336,-96.7032967032967,-49.03540903540904,0.5860805860805861,-11.135531135531135,-4.102564102564102,7.228327228327228,-60.757020757020754
-67.78998778998779,-7.228327228327228,-3.711843711843712,-7.228327228327228,-6.446886446886447,-43.56532356532357,-22.857142857142858,-13.870573870573871,133.43101343101344,-137.72893772893772,-80.68376068376068,-39.26739926739927,-24.02930402930403,-68.96214896214896,-81.85592185592185,50.598290598290596,-101.001221001221,-57.24053724053724,4.102564102564102,-10.744810744810744,12.307692307692308,2.148962148962149,-81.85592185592185
-67.3992673992674,-6.446886446886447,-10.354090354090355,-9.572649572649572,-7.228327228327228,-41.221001221001224,-29.499389499389498,-15.824175824175825,126.007326007326,-143.1990231990232,-86.54456654456655,-44.346764346764346,-12.698412698412698,-75.21367521367522,-105.2991452991453,46.69108669108669,-104.51770451770452,-64.66422466422466,10.744810744810744,-4.102564102564102,24.02930402930403,-1.7582417582417582,-105.2991452991453
-68.18070818070818,-9.963369963369964,-14.261294261294262,-8.791208791208792,-11.916971916971917,-42.002442002442,-33.7973137973138,-14.261294261294262,117.02075702075702,-147.49694749694748,-88.1074481074481,-57.24053724053724,-14.652014652014651,-77.94871794871794,-118.58363858363859,36.53235653235653,-106.47130647130648,-74.82295482295483,14.652014652014651,-1.3675213675213675,41.61172161172161,-13.47985347985348,-118.58363858363859
-70.52503052503053,-15.042735042735043,-15.042735042735043,-6.446886446886447,-15.433455433455434,-45.12820512820513,-36.14163614163614,-11.135531135531135,109.2063492063492,-147.49694749694748,-89.67032967032966,-61.92918192918193,-12.698412698412698,-78.33943833943835,-128.74236874236874,30.28083028083028,-107.64346764346764,-79.12087912087912,15.433455433455434,-2.93040293040293,63.492063492063494,-18.168498168498168,-128.74236874236874
-73.65079365079364,-19.731379731379732,-14.261294261294262,-4.493284493284493,-14.261294261294262,-53.724053724053725,-35.75091575091575,-8.4004884004884,107.64346764346764,-145.15262515262515,-88.1074481074481,-62.71062271062271,-0.5860805860805861,-80.29304029304029,-136.16605616605617,29.499389499389498,-109.2063492063492,-79.51159951159951,14.652014652014651,-0.19536019536019536,80.29304029304029,-19.731379731379732,-136.16605616605617
-81.85592185592185,-22.857142857142858,-9.963369963369964,-1.3675213675213675,-15.824175824175825,-69.74358974358974,-27.155067155067155,-3.711843711843712,100.21978021978022,-136.94749694749694,-86.54456654456655,-74.82295482295483,2.93040293040293,-70.91575091575092,-140.0732600732601,10.744810744810744,-108.81562881562881,-76.77655677655677,10.354090354090355,-2.148962148962149,106.47130647130648,-20.903540903540904,-140.0732600732601
-84.59096459096459,-27.545787545787547,-9.181929181929181,3.711843711843712,-22.466422466422465,-80.68376068376068,-23.247863247863247,8.00976800976801,89.27960927960928,-131.47741147741147,-87.32600732600733,-71.6971916971917,9.181929181929181,-69.35286935286935,-145.54334554334554,4.102564102564102,-112.33211233211233,-71.6971916971917,9.572649572649572,-1.3675213675213675,123.27228327228327,-22.466422466422465,-145.54334554334554
-76.38583638583638,-29.499389499389498,-8.4004884004884,-3.3211233211233213,-20.903540903540904,-74.04151404151405,-27.155067155067155,4.884004884004884,84.59096459096459,-128.35164835164835,-80.68376068376068,-65.44566544566544,23.63858363858364,-79.9023199023199,-144.76190476190476,11.526251526251526,-120.53724053724054,-68.18070818070818,8.791208791208792,11.526251526251526,116.23931623931624,-29.499389499389498,-144.76190476190476
-71.6971916971917,-34.57875457875458,-7.619047619047619,-5.274725274725275,-23.247863247863247,-75.21367521367522,-27.545787545787547,6.056166056166056,74.82295482295483,-126.3980463980464,-78.73015873015873,-56.45909645909646,31.45299145299145,-90.45177045177046,-144.76190476190476,16.605616605616607,-126.007326007326,-64.27350427350427,8.00976800976801,22.857142857142858,109.2063492063492,-33.7973137973138,-144.76190476190476
-73.26007326007326,-31.45299145299145,-6.446886446886447,-5.274725274725275,-28.327228327228326,-72.47863247863248,-31.45299145299145,14.652014652014651,65.44566544566544,-127.96092796092796,-79.51159951159951,-65.83638583638583,24.42002442002442,-87.32600732600733,-143.1990231990232,-1.3675213675213675,-131.08669108669108,-65.44566544566544,6.837606837606837,18.168498168498168,114.28571428571429,-36.14163614163614,-143.1990231990232
-71.30647130647131,-31.45299145299145,-6.056166056166056,-5.665445665445666,-30.671550671550673,-70.91575091575092,-33.40659340659341,20.512820512820515,67.78998778998779,-133.43101343101344,-81.07448107448107,-70.91575091575092,27.545787545787547,-85.76312576312576,-142.41758241758242,-16.214896214896214,-135.3846153846154,-64.27350427350427,6.446886446886447,15.433455433455434,117.02075702075702,-36.92307692307692,-142.41758241758242
-67.3992673992674,-38.485958485958484,-6.837606837606837,-4.493284493284493,-29.89010989010989,-75.995115995116,-27.545787545787547,15.824175824175825,65.83638583638583,-134.6031746031746,-86.15384615384616,-62.71062271062271,39.65811965811966,-104.12698412698413,-140.46398046398048,-11.916971916971917,-133.04029304029305,-58.8034188034188,7.228327228327228,25.982905982905983,115.84859584859585,-44.737484737484735,-140.46398046398048
-64.27350427350427,-40.83028083028083,-8.791208791208792,-1.7582417582417582,-28.71794871794872,-78.73015873015873,-23.63858363858364,14.652014652014651,67.00854700854701,-131.08669108669108,-90.06105006105007,-61.53846153846154,54.505494505494504,-115.45787545787546,-140.85470085470087,-13.47985347985348,-129.9145299145299,-58.41269841269841,9.181929181929181,30.28083028083028,118.97435897435898,-47.863247863247864,-140.85470085470087
-59.584859584859586,-38.876678876678874,-14.261294261294262,-6.446886446886447,-31.45299145299145,-76.38583638583638,-29.499389499389498,16.605616605616607,61.53846153846154,-131.47741147741147,-93.57753357753357,-61.53846153846154,39.65811965811966,-111.55067155067155,-127.17948717948718,-24.81074481074481,-128.74236874236874,-66.22710622710623,14.652014652014651,20.903540903540904,121.7094017094017,-56.45909645909646,-127.17948717948718
-60.757020757020754,-39.26739926739927,-18.168498168498168,-11.135531135531135,-40.04884004884005,-75.21367521367522,-32.62515262515262,17.387057387057386,50.598290598290596,-123.66300366300366,-96.7032967032967,-59.584859584859586,28.71794871794872,-113.11355311355311,-114.28571428571429,-29.89010989010989,-122.88156288156289,-73.26007326007326,18.55921855921856,18.168498168498168,115.84859584859585,-63.492063492063494,-114.28571428571429
-59.584859584859586,-35.36019536019536,-21.684981684981686,-16.996336996336996,-42.002442002442,-68.96214896214896,-32.62515262515262,8.00976800976801,40.83028083028083,-108.03418803418803,-95.14041514041514,-68.96214896214896,25.982905982905983,-118.97435897435898,-102.95482295482296,-34.18803418803419,-110.37851037851038,-78.73015873015873,22.075702075702075,23.247863247863247,102.56410256410257,-70.52503052503053,-102.95482295482296
-51.77045177045177,-31.062271062271062,-25.592185592185594,-23.247863247863247,-40.43956043956044,-58.8034188034188,-35.36019536019536,2.148962148962149,32.62515262515262,-93.18681318681318,-90.84249084249085,-75.995115995116,22.466422466422465,-121.7094017094017,-89.27960927960928,-38.095238095238095,-97.87545787545787,-81.85592185592185,25.982905982905983,24.02930402930403,85.76312576312576,-74.82295482295483,-89.27960927960928
-47.863247863247864,-29.499389499389498,-26.373626373626372,-25.982905982905983,-39.65811965811966,-49.42612942612943,-39.26739926739927,-2.148962148962149,29.10866910866911,-79.9023199023199,-90.06105006105007,-68.57142857142857,25.592185592185594,-124.44444444444444,-76.38583638583638,-34.18803418803419,-83.02808302808303,-84.98168498168498,26.764346764346765,24.42002442002442,74.43223443223444,-75.21367521367522,-76.38583638583638
-43.17460317460318,-28.327228327228326,-25.592185592185594,-26.373626373626372,-35.36019536019536,-40.83028083028083,-37.704517704517706,-9.572649572649572,22.857142857142858,-62.71062271062271,-88.88888888888889,-67.3992673992674,24.42002442002442,-117.4114774114774,-65.83638583638583,-36.53235653235653,-64.66422466422466,-83.41880341880342,25.982905982905983,24.81074481074481,65.83638583638583,-69.74358974358974,-65.83638583638583
-42.002442002442,-27.936507936507937,-23.247863247863247,-25.2014652014652,-35.36019536019536,-36.14163614163614,-34.57875457875458,-12.307692307692308,16.605616605616607,-49.81684981684982,-85.37240537240537,-67.78998778998779,17.387057387057386,-99.43833943833944,-59.1941391941392,-43.956043956043956,-48.25396825396825,-84.2002442002442,23.63858363858364,18.55921855921856,68.57142857142857,-64.27350427350427,-59.1941391941392
-43.56532356532357,-29.89010989010989,-19.731379731379732,-19.34065934065934,-39.65811965811966,-35.36019536019536,-30.28083028083028,-8.00976800976801,11.916971916971917,-40.04884004884005,-88.4981684981685,-47.081807081807085,11.135531135531135,-79.51159951159951,-55.28693528693529,-40.04884004884005,-33.40659340659341,-86.15384615384616,20.12210012210012,9.572649572649572,78.73015873015873,-57.63125763125763,-55.28693528693529
-44.346764346764346,-29.89010989010989,-18.168498168498168,-22.857142857142858,-42.39316239316239,-34.18803418803419,-28.71794871794872,-10.354090354090355,0.5860805860805861,-29.89010989010989,-88.1074481074481,-43.956043956043956,2.5396825396825395,-59.584859584859586,-55.67765567765568,-48.25396825396825,-23.247863247863247,-84.98168498168498,18.55921855921856,6.446886446886447,83.02808302808303,-50.989010989010985,-55.67765567765568
-41.221001221001224,-27.545787545787547,-21.294261294261293,-32.234432234432234,-41.61172161172161,-31.062271062271062,-28.71794871794872,-20.903540903540904,-0.19536019536019536,-25.592185592185594,-79.51159951159951,-59.1941391941392,3.711843711843712,-46.3003663003663,-59.975579975579976,-62.71062271062271,-22.857142857142858,-79.9023199023199,21.684981684981686,10.354090354090355,73.26007326007326,-47.472527472527474,-59.975579975579976
-30.28083028083028,-27.545787545787547,-29.499389499389498,-31.062271062271062,-33.01587301587302,-26.764346764346765,-37.313797313797316,-21.684981684981686,-2.148962148962149,-27.545787545787547,-71.6971916971917,-57.63125763125763,1.3675213675213675,-40.04884004884005,-57.24053724053724,-64.27350427350427,-30.28083028083028,-72.08791208791209,29.89010989010989,16.214896214896214,52.94261294261294,-45.90964590964591,-57.24053724053724
-20.903540903540904,-30.28083028083028,-32.62515262515262,-35.36019536019536,-27.155067155067155,-25.982905982905983,-40.04884004884005,-26.373626373626372,-2.5396825396825395,-24.42002442002442,-65.44566544566544,-38.876678876678874,11.916971916971917,-36.92307692307692,-56.06837606837607,-51.37973137973138,-34.57875457875458,-62.31990231990232,33.01587301587302,27.545787545787547,36.53235653235653,-44.346764346764346,-56.06837606837607
-14.261294261294262,-30.28083028083028,-36.53235653235653,-36.53235653235653,-22.466422466422465,-25.982905982905983,-39.26739926739927,-30.671550671550673,2.148962148962149,-23.63858363858364,-61.14774114774115,-25.982905982905983,30.671550671550673,-34.969474969474966,-58.8034188034188,-45.12820512820513,-38.095238095238095,-54.114774114774114,36.92307692307692,34.969474969474966,25.592185592185594,-36.92307692307692,-58.8034188034188
-12.698412698412698,-26.373626373626372,-38.095238095238095,-34.969474969474966,-20.903540903540904,-28.327228327228326,-40.83028083028083,-22.857142857142858,-10.354090354090355,-25.982905982905983,-54.89621489621489,-22.857142857142858,4.884004884004884,-12.307692307692308,-47.472527472527474,-59.975579975579976,-43.56532356532357,-53.724053724053725,38.485958485958484,24.81074481074481,24.81074481074481,-37.313797313797316,-47.472527472527474
-13.47985347985348,-21.294261294261293,-37.313797313797316,-35.75091575091575,-22.075702075702075,-27.936507936507937,-40.83028083028083,-18.168498168498168,-22.466422466422465,-25.2014652014652,-53.333333333333336,-16.214896214896214,-8.791208791208792,2.5396825396825395,-43.956043956043956,-67.78998778998779,-42.78388278388278,-48.64468864468864,37.704517704517706,16.996336996336996,25.2014652014652,-32.62515262515262,-43.956043956043956
-15.824175824175825,-21.684981684981686,-36.53235653235653,-35.36019536019536,-25.592185592185594,-24.42002442002442,-33.01587301587302,-27.155067155067155,-30.671550671550673,-21.294261294261293,-49.42612942612943,-7.619047619047619,-0.9768009768009768,-2.5396825396825395,-46.69108669108669,-59.1941391941392,-38.876678876678874,-40.43956043956044,36.92307692307692,25.2014652014652,18.55921855921856,-33.7973137973138,-46.69108669108669
-16.605616605616607,-20.512820512820515,-36.53235653235653,-33.01587301587302,-21.294261294261293,-21.684981684981686,-31.843711843711844,-31.45299145299145,-29.89010989010989,-18.94993894993895,-45.51892551892552,-2.93040293040293,3.711843711843712,-8.4004884004884,-39.26739926739927,-54.505494505494504,-36.92307692307692,-36.53235653235653,36.92307692307692,22.075702075702075,11.135531135531135,-34.57875457875458,-39.26739926739927
-19.34065934065934,-16.605616605616607,-32.234432234432234,-33.01587301587302,-22.075702075702075,-17.387057387057386,-34.969474969474966,-27.155067155067155,-33.7973137973138,-18.168498168498168,-45.51892551892552,2.5396825396825395,-3.3211233211233213,-2.5396825396825395,-29.499389499389498,-59.975579975579976,-32.62515262515262,-36.53235653235653,32.62515262515262,11.526251526251526,11.916971916971917,-31.45299145299145,-29.499389499389498
-23.63858363858364,-9.181929181929181,-28.71794871794872,-36.92307692307692,-24.81074481074481,-11.135531135531135,-34.57875457875458,-27.936507936507937,-34.18803418803419,-17.387057387057386,-45.12820512820513,5.274725274725275,-0.9768009768009768,-0.5860805860805861,-24.02930402930403,-65.44566544566544,-28.327228327228326,-35.36019536019536,29.10866910866911,6.837606837606837,12.307692307692308,-29.10866910866911,-24.02930402930403
-25.592185592185594,-3.711843711843712,-25.982905982905983,-37.704517704517706,-21.684981684981686,-7.228327228327228,-34.57875457875458,-29.499389499389498,-34.57875457875458,-18.94993894993895,-42.78388278388278,-0.19536019536019536,0.19536019536019536,-3.3211233211233213,-21.294261294261293,-72.86935286935287,-27.545787545787547,-34.969474969474966,26.373626373626372,8.00976800976801,14.261294261294262,-31.843711843711844,-21.294261294261293
-24.81074481074481,2.93040293040293,-26.373626373626372,-38.876678876678874,-15.824175824175825,-8.4004884004884,-37.704517704517706,-25.592185592185594,-38.095238095238095,-22.857142857142858,-46.3003663003663,0.19536019536019536,-4.493284493284493,-3.711843711843712,-22.466422466422465,-76.77655677655677,-29.89010989010989,-37.313797313797316,26.764346764346765,6.837606837606837,13.870573870573871,-31.843711843711844,-22.466422466422465
-33.40659340659341,4.102564102564102,-27.545787545787547,-39.65811965811966,-20.903540903540904,-13.47985347985348,-42.39316239316239,-19.34065934065934,-40.83028083028083,-27.545787545787547,-56.06837606837607,7.228327228327228,0.5860805860805861,-8.791208791208792,-31.062271062271062,-77.94871794871794,-34.18803418803419,-43.956043956043956,27.936507936507937,6.056166056166056,24.02930402930403,-31.843711843711844,-31.062271062271062
-40.04884004884005,1.7582417582417582,-32.234432234432234,-38.485958485958484,-24.42002442002442,-22.466422466422465,-42.39316239316239,-19.731379731379732,-50.598290598290596,-28.71794871794872,-63.88278388278388,3.711843711843712,0.19536019536019536,-15.433455433455434,-36.92307692307692,-88.4981684981685,-36.92307692307692,-49.03540903540904,32.62515262515262,5.274725274725275,34.969474969474966,-33.40659340659341,-36.92307692307692
-48.64468864468864,-0.5860805860805861,-39.26739926739927,-31.45299145299145,-33.40659340659341,-33.01587301587302,-42.002442002442,-11.916971916971917,-63.492063492063494,-25.982905982905983,-74.82295482295483,9.181929181929181,-9.572649572649572,-13.089133089133089,-37.313797313797316,-94.74969474969475,-38.095238095238095,-52.16117216117216,39.65811965811966,-1.7582417582417582,45.51892551892552,-32.62515262515262,-37.313797313797316
-52.16117216117216,2.93040293040293,-38.485958485958484,-37.313797313797316,-37.313797313797316,-33.40659340659341,-40.04884004884005,-14.261294261294262,-68.57142857142857,-18.55921855921856,-75.21367521367522,5.665445665445666,-13.089133089133089,-5.274725274725275,-34.18803418803419,-103.73626373626374,-34.57875457875458,-52.94261294261294,38.876678876678874,-11.135531135531135,55.67765567765568,-27.155067155067155,-34.18803418803419
-46.69108669108669,5.665445665445666,-42.39316239316239,-42.78388278388278,-37.704517704517706,-21.294261294261293,-42.78388278388278,-24.02930402930403,-74.82295482295483,-11.916971916971917,-69.35286935286935,3.711843711843712,-4.102564102564102,-13.870573870573871,-34.18803418803419,-100.61050061050061,-29.89010989010989,-45.90964590964591,42.78388278388278,-4.493284493284493,48.64468864468864,-26.764346764346765,-34.18803418803419
-45.51892551892552,9.181929181929181,-45.12820512820513,-42.002442002442,-39.65811965811966,-12.698412698412698,-47.863247863247864,-22.075702075702075,-83.41880341880342,-8.4004884004884,-59.584859584859586,-6.446886446886447,-5.274725274725275,-15.824175824175825,-31.843711843711844,-105.2991452991453,-31.45299145299145,-39.65811965811966,45.51892551892552,-0.5860805860805861,38.485958485958484,-27.936507936507937,-31.843711843711844
-40.83028083028083,15.433455433455434,-48.25396825396825,-45.90964590964591,-41.61172161172161,-7.619047619047619,-50.20757020757021,-19.34065934065934,-93.96825396825396,-6.056166056166056,-49.81684981684982,-14.261294261294262,-7.619047619047619,-10.744810744810744,-33.40659340659341,-113.11355311355311,-29.89010989010989,-33.40659340659341,48.64468864468864,-1.7582417582417582,33.40659340659341,-27.155067155067155,-33.40659340659341
-31.843711843711844,12.307692307692308,-50.20757020757021,-47.081807081807085,-43.56532356532357,-6.446886446886447,-46.3003663003663,-19.731379731379732,-103.73626373626374,-1.3675213675213675,-42.78388278388278,-0.19536019536019536,15.824175824175825,-26.764346764346765,-39.26739926739927,-98.26617826617827,-25.982905982905983,-22.857142857142858,50.598290598290596,11.916971916971917,24.42002442002442,-28.327228327228326,-39.26739926739927
-26.373626373626372,11.916971916971917,-49.42612942612943,-48.64468864468864,-47.472527472527474,-8.791208791208792,-38.095238095238095,-17.387057387057386,-117.8021978021978,4.884004884004884,-30.671550671550673,7.619047619047619,17.77777777777778,-25.592185592185594,-38.095238095238095,-89.67032967032966,-22.466422466422465,-13.089133089133089,49.81684981684982,18.168498168498168,23.63858363858364,-36.92307692307692,-38.095238095238095
-29.10866910866911,16.996336996336996,-46.69108669108669,-52.16117216117216,-57.63125763125763,-11.916971916971917,-36.14163614163614,-5.665445665445666,-132.25885225885227,9.572649572649572,-24.02930402930403,0.9768009768009768,3.3211233211233213,-7.228327228327228,-34.969474969474966,-104.12698412698413,-21.684981684981686,-9.181929181929181,47.081807081807085,7.228327228327228,30.28083028083028,-33.7973137973138,-34.969474969474966
-27.155067155067155,18.55921855921856,-40.83028083028083,-57.24053724053724,-61.14774114774115,-11.135531135531135,-32.234432234432234,-1.7582417582417582,-137.33821733821733,16.996336996336996,-16.996336996336996,-2.148962148962149,4.102564102564102,0.5860805860805861,-33.7973137973138,-110.37851037851038,-20.512820512820515,-0.19536019536019536,41.221001221001224,4.493284493284493,34.57875457875458,-29.499389499389498,-33.7973137973138
-24.02930402930403,14.652014652014651,-35.36019536019536,-54.89621489621489,-62.71062271062271,-9.572649572649572,-25.2014652014652,-1.3675213675213675,-132.25885225885227,22.466422466422465,-7.228327228327228,-0.9768009768009768,20.512820512820515,-2.5396825396825395,-34.18803418803419,-102.56410256410257,-20.12210012210012,13.089133089133089,35.75091575091575,16.214896214896214,30.671550671550673,-28.71794871794872,-34.18803418803419
-21.294261294261293,11.526251526251526,-33.40659340659341,-49.81684981684982,-61.14774114774115,-11.135531135531135,-21.684981684981686,1.3675213675213675,-130.3052503052503,26.373626373626372,-3.711843711843712,-2.148962148962149,26.764346764346765,0.19536019536019536,-35.75091575091575,-99.82905982905983,-23.247863247863247,18.94993894993895,33.7973137973138,17.387057387057386,31.45299145299145,-20.903540903540904,-35.75091575091575
-17.77777777777778,9.963369963369964,-30.28083028083028,-49.42612942612943,-57.63125763125763,-11.135531135531135,-24.02930402930403,4.102564102564102,-131.86813186813185,29.89010989010989,-1.7582417582417582,0.5860805860805861,22.075702075702075,6.837606837606837,-28.71794871794872,-103.34554334554335,-24.42002442002442,22.466422466422465,30.671550671550673,14.652014652014651,30.28083028083028,-9.963369963369964,-28.71794871794872
-8.4004884004884,7.228327228327228,-27.936507936507937,-47.472527472527474,-47.081807081807085,-9.963369963369964,-20.903540903540904,0.9768009768009768,-126.7887667887668,33.40659340659341,4.493284493284493,2.148962148962149,24.02930402930403,10.354090354090355,-20.12210012210012,-99.82905982905983,-21.294261294261293,26.373626373626372,28.327228327228326,18.55921855921856,22.075702075702075,-2.93040293040293,-20.12210012210012
-8.791208791208792,4.493284493284493,-25.592185592185594,-38.485958485958484,-43.17460317460318,-12.307692307692308,-17.77777777777778,3.711843711843712,-127.96092796092796,36.92307692307692,9.963369963369964,0.5860805860805861,15.433455433455434,11.916971916971917,-9.572649572649572,-96.7032967032967,-18.94993894993895,26.373626373626372,25.982905982905983,18.55921855921856,15.042735042735043,0.19536019536019536,-9.572649572649572
-10.354090354090355,2.93040293040293,-20.903540903540904,-31.062271062271062,-40.43956043956044,-13.47985347985348,-15.433455433455434,9.181929181929181,-131.47741147741147,42.39316239316239,12.698412698412698,4.493284493284493,2.93040293040293,16.996336996336996,1.3675213675213675,-91.62393162393163,-13.089133089133089,25.2014652014652,21.294261294261293,15.824175824175825,9.181929181929181,8.4004884004884,1.3675213675213675
-13.089133089133089,-1.7582417582417582,-12.307692307692308,-25.592185592185594,-39.65811965811966,-15.433455433455434,-10.744810744810744,11.916971916971917,-111.55067155067155,45.51892551892552,15.824175824175825,9.963369963369964,12.307692307692308,18.168498168498168,13.089133089133089,-83.41880341880342,-6.056166056166056,22.857142857142858,12.698412698412698,14.652014652014651,6.446886446886447,14.652014652014651,13.089133089133089
-21.294261294261293,-4.884004884004884,-6.837606837606837,-13.870573870573871,-41.221001221001224,-22.075702075702075,-6.837606837606837,22.857142857142858,-101.39194139194139,48.25396825396825,10.354090354090355,9.572649572649572,6.837606837606837,29.10866910866911,18.55921855921856,-86.93528693528694,-0.9768009768009768,20.12210012210012,7.228327228327228,4.493284493284493,11.526251526251526,27.155067155067155,18.55921855921856
-23.247863247863247,-6.446886446886447,-1.3675213675213675,-12.698412698412698,-41.221001221001224,-20.512820512820515,-2.93040293040293,20.12210012210012,-96.7032967032967,51.77045177045177,12.698412698412698,0.19536019536019536,-6.056166056166056,36.14163614163614,25.2014652014652,-86.93528693528694,4.493284493284493,19.34065934065934,1.7582417582417582,0.19536019536019536,9.963369963369964,32.62515262515262,25.2014652014652
-20.903540903540904,-6.837606837606837,5.274725274725275,-19.731379731379732,-36.92307692307692,-11.916971916971917,-1.7582417582417582,7.619047619047619,-86.15384615384616,55.28693528693529,19.731379731379732,-1.3675213675213675,-7.228327228327228,32.234432234432234,33.7973137973138,-72.08791208791209,10.354090354090355,20.903540903540904,-4.884004884004884,1.7582417582417582,-2.5396825396825395,33.7973137973138,33.7973137973138
-12.307692307692308,-8.00976800976801,7.228327228327228,-15.824175824175825,-26.373626373626372,-1.3675213675213675,-2.93040293040293,0.9768009768009768,-85.37240537240537,56.06837606837607,26.764346764346765,7.619047619047619,-10.354090354090355,18.94993894993895,40.04884004884005,-43.17460317460318,13.47985347985348,23.63858363858364,-6.837606837606837,8.791208791208792,-25.592185592185594,31.843711843711844,40.04884004884005
-8.00976800976801,-4.884004884004884,10.744810744810744,-14.652014652014651,-20.903540903540904,6.056166056166056,-1.3675213675213675,-1.3675213675213675,-83.41880341880342,55.67765567765568,35.75091575091575,-1.3675213675213675,-20.12210012210012,17.77777777777778,46.69108669108669,-37.313797313797316,14.652014652014651,24.02930402930403,-10.354090354090355,4.102564102564102,-37.313797313797316,31.062271062271062,46.69108669108669
-5.274725274725275,-0.5860805860805861,13.089133089133089,-11.526251526251526,-20.512820512820515,12.698412698412698,0.5860805860805861,1.3675213675213675,-82.24664224664225,56.06837606837607,45.12820512820513,0.9768009768009768,-32.62515262515262,20.512820512820515,60.757020757020754,-28.71794871794872,15.433455433455434,32.234432234432234,-12.698412698412698,-1.7582417582417582,-54.114774114774114,29.89010989010989,60.757020757020754
2.148962148962149,-2.148962148962149,17.77777777777778,-5.665445665445666,-14.652014652014651,14.652014652014651,9.572649572649572,1.7582417582417582,-72.08791208791209,60.366300366300365,52.94261294261294,25.2014652014652,-19.731379731379732,9.963369963369964,74.43223443223444,1.7582417582417582,20.12210012210012,47.081807081807085,-17.387057387057386,4.493284493284493,-75.21367521367522,25.982905982905983,74.43223443223444
8.00976800976801,-0.5860805860805861,22.466422466422465,-0.5860805860805861,-11.135531135531135,18.94993894993895,19.731379731379732,0.9768009768009768,-68.57142857142857,65.05494505494505,59.975579975579976,36.53235653235653,-14.652014652014651,6.056166056166056,81.07448107448107,20.512820512820515,24.02930402930403,58.8034188034188,-22.075702075702075,5.665445665445666,-86.15384615384616,27.155067155067155,81.07448107448107
3.3211233211233213,1.3675213675213675,27.545787545787547,2.148962148962149,-15.433455433455434,22.857142857142858,20.903540903540904,7.228327228327228,-79.51159951159951,66.22710622710623,68.96214896214896,36.14163614163614,-46.3003663003663,12.698412698412698,102.17338217338218,23.247863247863247,27.545787545787547,61.92918192918193,-27.155067155067155,-5.665445665445666,-88.88888888888889,17.77777777777778,102.17338217338218
4.884004884004884,2.93040293040293,30.671550671550673,4.102564102564102,-11.135531135531135,27.155067155067155,21.684981684981686,5.274725274725275,-75.6043956043956,65.44566544566544,67.78998778998779,37.313797313797316,-57.24053724053724,9.963369963369964,110.37851037851038,32.62515262515262,36.53235653235653,62.31990231990232,-30.28083028083028,-9.572649572649572,-92.4053724053724,11.916971916971917,110.37851037851038
4.493284493284493,0.19536019536019536,31.062271062271062,9.181929181929181,-3.711843711843712,30.28083028083028,25.592185592185594,-5.665445665445666,-70.13431013431014,67.78998778998779,62.31990231990232,27.545787545787547,-58.8034188034188,-6.446886446886447,110.37851037851038,43.56532356532357,47.472527472527474,56.06837606837607,-30.671550671550673,-5.665445665445666,-93.18681318681318,4.493284493284493,110.37851037851038
4.884004884004884,-2.148962148962149,29.89010989010989,7.619047619047619,2.5396825396825395,33.01587301587302,22.857142857142858,-17.77777777777778,-62.71062271062271,67.00854700854701,57.24053724053724,13.47985347985348,-66.22710622710623,-20.12210012210012,110.76923076923077,50.989010989010985,58.02197802197802,46.3003663003663,-29.499389499389498,-4.884004884004884,-100.21978021978022,-0.19536019536019536,110.76923076923077
2.93040293040293,-0.9768009768009768,26.373626373626372,2.5396825396825395,6.056166056166056,38.485958485958484,14.261294261294262,-28.327228327228326,-48.64468864468864,63.492063492063494,47.472527472527474,9.181929181929181,-68.18070818070818,-35.36019536019536,115.45787545787546,60.366300366300365,67.00854700854701,34.57875457875458,-25.982905982905983,-5.274725274725275,-113.5042735042735,-6.056166056166056,115.45787545787546
3.3211233211233213,0.9768009768009768,23.63858363858364,2.93040293040293,14.652014652014651,40.43956043956044,8.00976800976801,-31.45299145299145,-37.704517704517706,61.53846153846154,39.26739926739927,7.619047619047619,-74.82295482295483,-42.39316239316239,120.14652014652015,68.96214896214896,72.08791208791209,25.2014652014652,-23.247863247863247,-5.274725274725275,-138.9010989010989,-2.5396825396825395,120.14652014652015
0.5860805860805861,4.102564102564102,21.684981684981686,3.711843711843712,18.55921855921856,37.704517704517706,1.7582417582417582,-27.545787545787547,-24.81074481074481,58.02197802197802,33.40659340659341,4.102564102564102,-81.07448107448107,-43.56532356532357,122.88156288156289,73.26007326007326,74.04151404151405,13.47985347985348,-21.294261294261293,-9.963369963369964,-147.1062271062271,-11.526251526251526,122.88156288156289
0.19536019536019536,8.4004884004884,23.63858363858364,3.3211233211233213,26.373626373626372,35.36019536019536,-2.5396825396825395,-22.857142857142858,-11.135531135531135,52.94261294261294,25.2014652014652,6.837606837606837,-88.1074481074481,-38.095238095238095,123.27228327228327,78.73015873015873,74.04151404151405,1.3675213675213675,-23.247863247863247,-19.731379731379732,-147.49694749694748,-14.261294261294262,123.27228327228327
-0.5860805860805861,10.744810744810744,25.2014652014652,7.619047619047619,35.36019536019536,28.327228327228326,-5.665445665445666,-13.47985347985348,4.493284493284493,48.25396825396825,7.228327228327228,13.089133089133089,-93.18681318681318,-27.545787545787547,116.23931623931624,79.9023199023199,68.18070818070818,-11.135531135531135,-24.81074481074481,-34.18803418803419,-139.29181929181928,-9.181929181929181,116.23931623931624
-1.3675213675213675,12.307692307692308,29.10866910866911,2.93040293040293,43.956043956043956,22.857142857142858,-2.93040293040293,-19.731379731379732,16.605616605616607,45.51892551892552,0.9768009768009768,-2.93040293040293,-90.84249084249085,-24.81074481074481,104.9084249084249,71.6971916971917,64.27350427350427,-20.12210012210012,-28.71794871794872,-36.14163614163614,-129.13308913308913,-9.963369963369964,104.9084249084249
1.3675213675213675,17.387057387057386,29.10866910866911,-4.493284493284493,56.06837606837607,26.373626373626372,-8.00976800976801,-29.89010989010989,28.71794871794872,37.313797313797316,-5.274725274725275,-21.294261294261293,-91.23321123321124,-28.71794871794872,92.4053724053724,65.83638583638583,53.724053724053725,-28.71794871794872,-28.71794871794872,-34.18803418803419,-130.3052503052503,-8.4004884004884,92.4053724053724
3.711843711843712,18.168498168498168,28.327228327228326,-9.181929181929181,67.00854700854701,29.89010989010989,-16.214896214896214,-38.485958485958484,39.65811965811966,25.2014652014652,-11.916971916971917,-15.042735042735043,-80.68376068376068,-45.51892551892552,82.24664224664225,81.85592185592185,38.876678876678874,-36.92307692307692,-27.936507936507937,-28.71794871794872,-135.3846153846154,-7.228327228327228,82.24664224664225
6.837606837606837,20.512820512820515,27.155067155067155,-15.042735042735043,80.29304029304029,30.28083028083028,-21.294261294261293,-47.863247863247864,59.584859584859586,15.433455433455434,-18.55921855921856,-17.77777777777778,-63.492063492063494,-61.53846153846154,75.995115995116,88.1074481074481,29.499389499389498,-43.56532356532357,-26.764346764346765,-25.592185592185594,-137.72893772893772,-5.665445665445666,75.995115995116
6.837606837606837,27.545787545787547,24.42002442002442,-19.731379731379732,88.88888888888889,31.45299145299145,-31.062271062271062,-49.42612942612943,72.86935286935287,2.5396825396825395,-24.02930402930403,-36.53235653235653,-69.74358974358974,-56.84981684981685,72.47863247863248,68.18070818070818,18.94993894993895,-55.28693528693529,-24.02930402930403,-40.04884004884005,-125.61660561660561,-2.148962148962149,72.47863247863248
6.446886446886447,34.18803418803419,20.903540903540904,-21.294261294261293,96.31257631257631,31.45299145299145,-36.53235653235653,-50.20757020757021,87.32600732600733,-7.228327228327228,-31.843711843711844,-43.956043956043956,-69.35286935286935,-49.42612942612943,68.96214896214896,53.333333333333336,10.354090354090355,-63.492063492063494,-20.512820512820515,-56.84981684981685,-107.64346764346764,7.228327228327228,68.96214896214896
14.261294261294262,34.18803418803419,18.94993894993895,-22.857142857142858,108.42490842490842,29.499389499389498,-32.234432234432234,-59.975579975579976,107.64346764346764,-12.698412698412698,-37.704517704517706,-43.956043956043956,-43.17460317460318,-58.41269841269841,61.53846153846154,52.16117216117216,7.228327228327228,-61.92918192918193,-18.55921855921856,-54.505494505494504,-98.26617826617827,13.47985347985348,61.53846153846154
22.466422466422465,35.75091575091575,16.996336996336996,-24.02930402930403,118.97435897435898,29.10866910866911,-28.71794871794872,-67.00854700854701,120.92796092796092,-20.903540903540904,-36.14163614163614,-49.03540903540904,-21.294261294261293,-63.88278388278388,49.03540903540904,48.25396825396825,1.3675213675213675,-60.366300366300365,-16.605616605616607,-52.16117216117216,-81.46520146520146,14.652014652014651,49.03540903540904
22.466422466422465,37.313797313797316,16.214896214896214,-21.684981684981686,121.31868131868131,27.155067155067155,-31.45299145299145,-61.53846153846154,121.7094017094017,-31.062271062271062,-38.876678876678874,-49.81684981684982,-16.605616605616607,-55.67765567765568,36.14163614163614,36.53235653235653,-10.354090354090355,-61.53846153846154,-15.824175824175825,-62.71062271062271,-61.92918192918193,27.545787545787547,36.14163614163614
22.075702075702075,35.75091575091575,15.433455433455434,-20.12210012210012,122.4908424908425,20.512820512820515,-31.062271062271062,-57.24053724053724,120.53724053724054,-39.65811965811966,-42.002442002442,-48.25396825396825,-4.493284493284493,-58.41269841269841,23.63858363858364,28.327228327228326,-19.731379731379732,-58.8034188034188,-15.042735042735043,-66.61782661782662,-39.26739926739927,30.28083028083028,23.63858363858364
24.81074481074481,31.843711843711844,15.433455433455434,-19.731379731379732,123.66300366300366,13.47985347985348,-22.466422466422465,-61.53846153846154,116.23931623931624,-45.90964590964591,-37.313797313797316,-54.89621489621489,4.102564102564102,-55.67765567765568,8.00976800976801,20.512820512820515,-27.545787545787547,-51.37973137973138,-15.042735042735043,-58.8034188034188,-23.247863247863247,29.499389499389498,8.00976800976801
22.075702075702075,28.327228327228326,15.433455433455434,-18.94993894993895,118.58363858363859,11.526251526251526,-18.55921855921856,-63.492063492063494,104.12698412698413,-48.64468864468864,-36.92307692307692,-57.63125763125763,6.837606837606837,-52.55189255189255,-6.837606837606837,13.089133089133089,-36.14163614163614,-45.12820512820513,-15.042735042735043,-53.333333333333336,-7.228327228327228,33.01587301587302,-6.837606837606837
21.684981684981686,24.02930402930403,15.824175824175825,-18.55921855921856,113.11355311355311,10.744810744810744,-17.387057387057386,-61.92918192918193,95.53113553113553,-54.114774114774114,-42.002442002442,-48.64468864468864,15.042735042735043,-52.94261294261294,-24.42002442002442,11.135531135531135,-43.17460317460318,-40.04884004884005,-15.433455433455434,-49.03540903540904,10.744810744810744,37.704517704517706,-24.42002442002442
22.075702075702075,20.903540903540904,13.47985347985348,-15.824175824175825,104.9084249084249,7.619047619047619,-11.526251526251526,-58.8034188034188,85.37240537240537,-58.41269841269841,-47.472527472527474,-48.25396825396825,23.247863247863247,-50.20757020757021,-43.17460317460318,1.7582417582417582,-47.081807081807085,-35.36019536019536,-13.089133089133089,-44.346764346764346,28.327228327228326,44.346764346764346,-43.17460317460318
15.042735042735043,21.294261294261293,11.135531135531135,-11.526251526251526,90.06105006105007,6.056166056166056,-7.228327228327228,-51.37973137973138,78.73015873015873,-62.31990231990232,-55.28693528693529,-50.989010989010985,26.764346764346765,-42.78388278388278,-60.366300366300365,-13.870573870573871,-50.20757020757021,-33.7973137973138,-10.744810744810744,-49.03540903540904,50.989010989010985,54.114774114774114,-60.366300366300365
6.837606837606837,19.34065934065934,6.056166056166056,-4.493284493284493,73.26007326007326,-1.3675213675213675,-4.884004884004884,-37.313797313797316,72.86935286935287,-67.00854700854701,-70.52503052503053,-38.485958485958484,31.843711843711844,-37.313797313797316,-77.94871794871794,-20.12210012210012,-55.67765567765568,-37.313797313797316,-5.665445665445666,-58.02197802197802,78.73015873015873,64.66422466422466,-77.94871794871794
2.148962148962149,19.731379731379732,6.446886446886447,-10.744810744810744,62.71062271062271,-6.056166056166056,-0.9768009768009768,-36.53235653235653,73.65079365079364,-70.91575091575092,-74.82295482295483,-45.12820512820513,38.876678876678874,-32.234432234432234,-87.71672771672772,-36.92307692307692,-56.84981684981685,-38.876678876678874,-6.056166056166056,-61.14774114774115,97.48473748473748,71.30647130647131,-87.71672771672772
-3.711843711843712,22.857142857142858,6.056166056166056,-20.12210012210012,52.55189255189255,-3.3211233211233213,2.5396825396825395,-45.12820512820513,65.83638583638583,-72.47863247863248,-72.08791208791209,-68.18070818070818,34.18803418803419,-29.499389499389498,-92.4053724053724,-59.975579975579976,-61.14774114774115,-33.40659340659341,-5.665445665445666,-56.06837606837607,103.73626373626374,70.91575091575092,-92.4053724053724
-6.446886446886447,22.466422466422465,2.5396825396825395,-21.294261294261293,43.56532356532357,2.93040293040293,-2.5396825396825395,-45.90964590964591,55.67765567765568,-75.21367521367522,-69.74358974358974,-75.21367521367522,29.10866910866911,-33.7973137973138,-93.57753357753357,-66.61782661782662,-68.18070818070818,-26.373626373626372,-2.148962148962149,-45.90964590964591,96.7032967032967,69.35286935286935,-93.57753357753357
-6.837606837606837,19.731379731379732,1.7582417582417582,-27.545787545787547,36.14163614163614,8.4004884004884,-5.665445665445666,-51.77045177045177,50.20757020757021,-72.08791208791209,-67.00854700854701,-68.96214896214896,37.704517704517706,-42.39316239316239,-90.06105006105007,-63.492063492063494,-65.05494505494505,-18.55921855921856,-1.3675213675213675,-33.7973137973138,93.96825396825396,67.78998778998779,-90.06105006105007
-2.93040293040293,17.387057387057386,-4.493284493284493,-30.671550671550673,32.234432234432234,11.135531135531135,-7.228327228327228,-58.02197802197802,41.61172161172161,-67.00854700854701,-66.22710622710623,-65.05494505494505,46.3003663003663,-52.16117216117216,-86.54456654456655,-64.27350427350427,-62.31990231990232,-11.916971916971917,4.884004884004884,-22.075702075702075,83.80952380952381,66.22710622710623,-86.54456654456655
-1.3675213675213675,16.605616605616607,-12.698412698412698,-30.28083028083028,25.2014652014652,10.744810744810744,-14.652014652014651,-49.42612942612943,35.75091575091575,-68.18070818070818,-66.61782661782662,-71.6971916971917,33.7973137973138,-39.65811965811966,-76.77655677655677,-88.4981684981685,-62.31990231990232,-16.605616605616607,13.089133089133089,-29.89010989010989,86.54456654456655,67.78998778998779,-76.77655677655677
-2.5396825396825395,14.261294261294262,-20.903540903540904,-34.18803418803419,16.605616605616607,4.102564102564102,-18.94993894993895,-46.69108669108669,35.36019536019536,-70.91575091575092,-70.91575091575092,-72.47863247863248,27.155067155067155,-30.671550671550673,-66.22710622710623,-108.81562881562881,-61.92918192918193,-21.684981684981686,21.294261294261293,-34.969474969474966,84.98168498168498,70.52503052503053,-66.22710622710623
2.93040293040293,5.274725274725275,-29.10866910866911,-37.313797313797316,16.605616605616607,-2.148962148962149,-17.387057387057386,-53.724053724053725,36.53235653235653,-70.13431013431014,-70.91575091575092,-68.18070818070818,36.14163614163614,-38.876678876678874,-59.584859584859586,-109.98778998778998,-61.14774114774115,-22.466422466422465,29.499389499389498,-20.12210012210012,69.74358974358974,67.78998778998779,-59.584859584859586
8.791208791208792,-4.102564102564102,-38.876678876678874,-33.01587301587302,15.042735042735043,-8.791208791208792,-18.94993894993895,-54.114774114774114,33.40659340659341,-67.78998778998779,-69.35286935286935,-62.71062271062271,35.36019536019536,-38.876678876678874,-50.20757020757021,-112.72283272283272,-61.14774114774115,-25.592185592185594,39.26739926739927,-11.135531135531135,59.584859584859586,66.61782661782662,-50.20757020757021
4.884004884004884,-11.526251526251526,-45.51892551892552,-31.062271062271062,6.446886446886447,-14.652014652014651,-27.545787545787547,-47.472527472527474,25.2014652014652,-65.05494505494505,-71.30647130647131,-53.333333333333336,24.42002442002442,-26.764346764346765,-40.43956043956044,-122.4908424908425,-61.14774114774115,-33.01587301587302,45.90964590964591,-12.307692307692308,58.41269841269841,70.91575091575092,-40.43956043956044
16.605616605616607,-15.824175824175825,-51.77045177045177,-31.45299145299145,15.042735042735043,-18.55921855921856,-32.234432234432234,-45.90964590964591,18.168498168498168,-58.8034188034188,-65.44566544566544,-46.69108669108669,22.466422466422465,-17.77777777777778,-28.327228327228326,-129.52380952380952,-59.584859584859586,-33.7973137973138,52.16117216117216,-10.354090354090355,54.114774114774114,71.6971916971917,-28.327228327228326
27.155067155067155,-21.294261294261293,-58.02197802197802,-25.2014652014652,20.12210012210012,-19.34065934065934,-33.7973137973138,-44.737484737484735,6.446886446886447,-49.03540903540904,-52.16117216117216,-45.90964590964591,22.075702075702075,-10.354090354090355,-18.55921855921856,-134.993894993895,-59.1941391941392,-30.28083028083028,58.41269841269841,-0.19536019536019536,49.03540903540904,67.78998778998779,-18.55921855921856
30.671550671550673,-25.2014652014652,-59.975579975579976,-18.94993894993895,19.34065934065934,-17.77777777777778,-36.92307692307692,-38.485958485958484,-0.5860805860805861,-44.346764346764346,-42.002442002442,-29.89010989010989,26.764346764346765,-0.19536019536019536,-11.135531135531135,-133.43101343101344,-61.53846153846154,-26.764346764346765,60.366300366300365,4.102564102564102,49.03540903540904,69.74358974358974,-11.135531135531135
31.062271062271062,-28.327228327228326,-57.63125763125763,-12.698412698412698,14.652014652014651,-18.168498168498168,-34.969474969474966,-28.71794871794872,-11.916971916971917,-35.75091575091575,-31.062271062271062,-7.619047619047619,30.671550671550673,9.963369963369964,2.93040293040293,-131.47741147741147,-60.757020757020754,-19.731379731379732,58.02197802197802,7.228327228327228,50.20757020757021,71.6971916971917,2.93040293040293
25.982905982905983,-29.89010989010989,-51.77045177045177,-4.884004884004884,5.665445665445666,-19.34065934065934,-27.545787545787547,-18.55921855921856,-25.592185592185594,-23.63858363858364,-15.824175824175825,9.963369963369964,33.7973137973138,26.764346764346765,16.214896214896214,-134.993894993895,-54.505494505494504,-10.354090354090355,52.16117216117216,11.526251526251526,55.28693528693529,74.04151404151405,16.214896214896214
13.870573870573871,-33.01587301587302,-44.737484737484735,8.4004884004884,-13.47985347985348,-25.592185592185594,-17.77777777777778,2.5396825396825395,-42.78388278388278,-11.135531135531135,-4.884004884004884,36.53235653235653,38.876678876678874,45.51892551892552,28.327228327228326,-136.94749694749694,-46.3003663003663,-0.5860805860805861,45.12820512820513,9.963369963369964,68.57142857142857,81.07448107448107,28.327228327228326
6.446886446886447,-26.764346764346765,-30.671550671550673,8.00976800976801,-25.982905982905983,-25.592185592185594,-2.93040293040293,13.089133089133089,-58.41269841269841,0.9768009768009768,15.824175824175825,54.505494505494504,33.40659340659341,70.91575091575092,50.20757020757021,-142.41758241758242,-36.53235653235653,11.916971916971917,31.062271062271062,4.493284493284493,79.9023199023199,81.46520146520146,50.20757020757021
11.526251526251526,-20.12210012210012,-22.466422466422465,10.744810744810744,-29.499389499389498,-16.214896214896214,7.619047619047619,18.94993894993895,-78.33943833943835,15.824175824175825,42.78388278388278,75.995115995116,35.75091575091575,80.68376068376068,70.91575091575092,-130.6959706959707,-26.373626373626372,31.062271062271062,22.857142857142858,15.824175824175825,69.35286935286935,75.21367521367522,70.91575091575092
8.4004884004884,-13.089133089133089,-15.042735042735043,22.075702075702075,-42.78388278388278,-3.3211233211233213,15.042735042735043,34.18803418803419,-98.65689865689866,27.155067155067155,66.61782661782662,87.32600732600733,29.89010989010989,92.4053724053724,85.76312576312576,-126.3980463980464,-20.903540903540904,48.25396825396825,15.433455433455434,23.247863247863247,63.101343101343105,67.00854700854701,85.76312576312576
4.884004884004884,-1.7582417582417582,-2.93040293040293,28.327228327228326,-56.06837606837607,11.916971916971917,23.63858363858364,48.64468864468864,-112.72283272283272,36.92307692307692,85.76312576312576,99.04761904761905,26.373626373626372,111.15995115995116,99.43833943833944,-127.57020757020757,-10.744810744810744,67.78998778998779,3.3211233211233213,20.903540903540904,67.78998778998779,64.66422466422466,99.43833943833944
10.744810744810744,5.665445665445666,6.837606837606837,33.40659340659341,-60.757020757020754,27.545787545787547,34.969474969474966,56.06837606837607,-121.31868131868131,51.37973137973138,100.61050061050061,131.86813186813185,41.221001221001224,113.11355311355311,111.55067155067155,-104.51770451770452,2.93040293040293,88.88888888888889,-6.446886446886447,33.40659340659341,56.84981684981685,62.71062271062271,111.55067155067155
16.996336996336996,12.698412698412698,20.903540903540904,39.26739926739927,-61.53846153846154,39.26739926739927,47.863247863247864,65.83638583638583,-119.75579975579976,67.00854700854701,111.15995115995116,156.4835164835165,65.05494505494505,120.14652014652015,118.1929181929182,-90.06105006105007,21.294261294261293,105.68986568986568,-20.512820512820515,36.92307692307692,65.44566544566544,60.366300366300365,118.1929181929182
12.698412698412698,26.764346764346765,33.01587301587302,40.43956043956044,-71.30647130647131,47.081807081807085,53.724053724053725,84.2002442002442,-124.44444444444444,78.73015873015873,118.1929181929182,166.25152625152626,60.366300366300365,145.54334554334554,131.47741147741147,-100.21978021978022,35.75091575091575,112.72283272283272,-32.62515262515262,20.512820512820515,70.91575091575092,70.13431013431014,131.47741147741147
16.996336996336996,36.92307692307692,40.83028083028083,40.83028083028083,-70.52503052503053,52.55189255189255,60.757020757020754,94.74969474969475,-128.74236874236874,92.01465201465201,125.22588522588522,181.0989010989011,58.41269841269841,163.12576312576311,147.1062271062271,-99.04761904761905,50.20757020757021,119.75579975579976,-40.43956043956044,17.77777777777778,62.71062271062271,74.82295482295483,147.1062271062271
24.02930402930403,39.65811965811966,45.51892551892552,48.64468864468864,-67.00854700854701,56.06837606837607,67.78998778998779,102.17338217338218,-131.47741147741147,110.37851037851038,132.25885225885227,198.6813186813187,70.13431013431014,168.2051282051282,154.9206349206349,-84.59096459096459,63.492063492063494,129.13308913308913,-45.12820512820513,29.10866910866911,50.989010989010985,74.04151404151405,154.9206349206349
21.684981684981686,42.78388278388278,48.64468864468864,56.45909645909646,-74.43223443223444,57.63125763125763,73.26007326007326,113.89499389499389,-135.3846153846154,122.88156288156289,139.29181929181928,212.74725274725276,73.65079365079364,178.75457875457874,163.9072039072039,-76.38583638583638,71.6971916971917,132.64957264957266,-48.25396825396825,31.062271062271062,45.12820512820513,74.82295482295483,163.9072039072039
27.936507936507937,46.69108669108669,52.55189255189255,57.63125763125763,-72.86935286935287,60.757020757020754,74.82295482295483,124.05372405372405,-133.04029304029305,131.86813186813185,145.54334554334554,228.76678876678878,77.94871794871794,195.16483516483515,173.2844932844933,-73.26007326007326,76.77655677655677,136.55677655677655,-52.16117216117216,30.28083028083028,42.78388278388278,77.16727716727716,173.2844932844933
38.876678876678874,51.37973137973138,56.45909645909646,59.1941391941392,-66.61782661782662,67.78998778998779,76.77655677655677,129.52380952380952,-134.6031746031746,141.63614163614164,158.43711843711844,239.31623931623932,85.37240537240537,201.02564102564102,183.83394383394383,-65.05494505494505,86.54456654456655,142.8083028083028,-56.06837606837607,34.18803418803419,34.57875457875458,74.04151404151405,183.83394383394383
46.69108669108669,53.724053724053725,59.1941391941392,67.78998778998779,-65.44566544566544,73.26007326007326,80.68376068376068,140.46398046398048,-134.21245421245422,151.7948717948718,169.37728937728937,245.95848595848597,85.76312576312576,212.35653235653237,192.42979242979243,-58.8034188034188,94.74969474969475,146.32478632478632,-58.8034188034188,34.969474969474966,27.545787545787547,70.52503052503053,192.42979242979243
50.598290598290596,57.24053724053724,61.53846153846154,75.995115995116,-62.71062271062271,77.16727716727716,83.80952380952381,149.45054945054946,-132.64957264957266,160.3907203907204,174.84737484737485,255.33577533577534,83.02808302808303,222.9059829059829,201.8070818070818,-50.598290598290596,104.51770451770452,147.88766788766787,-61.14774114774115,30.28083028083028,15.042735042735043,83.02808302808303,201.8070818070818
54.89621489621489,58.8034188034188,65.83638583638583,83.80952380952381,-54.505494505494504,78.73015873015873,86.54456654456655,154.52991452991452,-127.96092796092796,168.5958485958486,179.14529914529913,263.9316239316239,84.98168498168498,227.2039072039072,210.79365079365078,-40.43956043956044,116.23931623931624,149.45054945054946,-65.44566544566544,25.592185592185594,14.261294261294262,85.76312576312576,210.79365079365078
53.333333333333336,58.8034188034188,67.00854700854701,97.09401709401709,-49.03540903540904,73.26007326007326,90.06105006105007,163.5164835164835,-121.7094017094017,176.01953601953602,176.01953601953602,266.2759462759463,79.12087912087912,240.0976800976801,217.43589743589743,-40.83028083028083,122.4908424908425,149.05982905982907,-66.61782661782662,16.605616605616607,20.903540903540904,90.45177045177046,217.43589743589743
50.598290598290596,60.757020757020754,68.18070818070818,97.87545787545787,-42.78388278388278,68.57142857142857,95.14041514041514,157.65567765567766,-109.59706959706959,174.84737484737485,179.14529914529913,260.8058608058608,78.73015873015873,243.2234432234432,222.12454212454213,-39.26739926739927,125.22588522588522,147.88766788766787,-67.78998778998779,11.135531135531135,24.42002442002442,90.84249084249085,222.12454212454213
54.89621489621489,60.366300366300365,69.35286935286935,90.84249084249085,-28.71794871794872,69.74358974358974,95.14041514041514,141.24542124542126,-96.31257631257631,172.11233211233213,183.83394383394383,261.97802197802196,84.59096459096459,232.28327228327228,226.4224664224664,-23.247863247863247,125.22588522588522,146.32478632478632,-68.96214896214896,15.824175824175825,23.63858363858364,81.07448107448107,226.4224664224664
64.66422466422466,57.24053724053724,66.61782661782662,89.67032967032966,-13.089133089133089,73.65079365079364,88.88888888888889,130.6959706959707,-75.6043956043956,163.9072039072039,188.13186813186815,270.5738705738706,89.27960927960928,217.04517704517704,233.84615384615384,5.665445665445666,120.53724053724054,143.98046398046398,-66.22710622710623,25.982905982905983,-4.102564102564102,75.6043956043956,233.84615384615384
63.88278388278388,58.41269841269841,67.00854700854701,90.06105006105007,-7.228327228327228,74.43223443223444,86.15384615384616,127.57020757020757,-56.06837606837607,153.35775335775335,191.64835164835165,254.55433455433456,77.94871794871794,217.43589743589743,240.4884004884005,6.837606837606837,115.06715506715507,138.9010989010989,-66.61782661782662,21.684981684981686,-18.55921855921856,77.16727716727716,240.4884004884005
61.92918192918193,61.14774114774115,68.96214896214896,89.27960927960928,-2.93040293040293,75.21367521367522,82.63736263736264,128.74236874236874,-35.75091575091575,143.5897435897436,194.38339438339437,240.0976800976801,66.61782661782662,218.998778998779,245.95848595848597,9.181929181929181,110.37851037851038,136.16605616605617,-68.57142857142857,16.996336996336996,-34.18803418803419,81.46520146520146,245.95848595848597
65.44566544566544,59.975579975579976,74.43223443223444,91.62393162393163,7.619047619047619,73.65079365079364,86.54456654456655,124.83516483516483,-11.916971916971917,139.68253968253967,193.6019536019536,241.26984126984127,73.26007326007326,209.62148962148962,249.08424908424908,29.499389499389498,106.86202686202687,139.68253968253967,-74.04151404151405,18.55921855921856,-41.61172161172161,82.63736263736264,249.08424908424908
65.44566544566544,59.584859584859586,80.68376068376068,90.06105006105007,15.824175824175825,70.52503052503053,91.62393162393163,118.58363858363859,12.698412698412698,131.47741147741147,196.72771672771674,227.98534798534797,77.16727716727716,202.97924297924297,253.3821733821734,35.75091575091575,100.61050061050061,140.85470085470087,-80.29304029304029,19.34065934065934,-47.863247863247864,84.59096459096459,253.3821733821734
59.584859584859586,63.88278388278388,83.41880341880342,86.54456654456655,20.512820512820515,70.91575091575092,87.71672771672772,115.45787545787546,38.876678876678874,118.1929181929182,195.55555555555554,206.8864468864469,70.91575091575092,206.1050061050061,257.6800976800977,24.02930402930403,87.71672771672772,135.3846153846154,-83.02808302808303,4.493284493284493,-36.14163614163614,86.93528693528694,257.6800976800977
58.41269841269841,65.05494505494505,84.98168498168498,82.24664224664225,31.062271062271062,71.30647130647131,81.46520146520146,108.03418803418803,57.24053724053724,102.56410256410257,196.72771672771674,195.55555555555554,47.081807081807085,204.54212454212455,275.26251526251525,25.2014652014652,78.33943833943835,132.64957264957266,-84.59096459096459,-4.884004884004884,-44.346764346764346,84.98168498168498,275.26251526251525
58.8034188034188,61.53846153846154,81.46520146520146,84.59096459096459,41.221001221001224,69.35286935286935,81.46520146520146,95.14041514041514,90.45177045177046,84.59096459096459,197.50915750915752,182.27106227106228,49.42612942612943,189.6947496947497,283.8583638583639,31.843711843711844,69.74358974358974,128.74236874236874,-81.07448107448107,-0.9768009768009768,-59.1941391941392,81.07448107448107,283.8583638583639
55.67765567765568,60.366300366300365,77.16727716727716,84.2002442002442,49.81684981684982,66.61782661782662,77.94871794871794,83.80952380952381,129.13308913308913,63.101343101343105,193.99267399267399,165.86080586080587,46.3003663003663,177.1916971916972,291.28205128205127,36.53235653235653,61.53846153846154,118.58363858363859,-76.77655677655677,-2.5396825396825395,-75.21367521367522,79.9023199023199,291.28205128205127
58.02197802197802,56.45909645909646,72.86935286935287,81.85592185592185,63.101343101343105,62.71062271062271,68.57142857142857,75.6043956043956,160.3907203907204,37.704517704517706,186.56898656898656,156.87423687423689,36.14163614163614,159.6092796092796,299.4871794871795,45.90964590964591,50.598290598290596,103.73626373626374,-72.47863247863248,-3.711843711843712,-90.84249084249085,75.6043956043956,299.4871794871795
57.24053724053724,52.55189255189255,67.00854700854701,84.2002442002442,72.08791208791209,53.333333333333336,64.27350427350427,70.52503052503053,198.6813186813187,13.47985347985348,175.62881562881563,147.1062271062271,36.53235653235653,142.8083028083028,303.003663003663,52.94261294261294,37.704517704517706,92.7960927960928,-66.61782661782662,-0.5860805860805861,-101.78266178266178,66.22710622710623,303.003663003663
56.84981684981685,50.989010989010985,62.31990231990232,87.32600732600733,79.9023199023199,43.17460317460318,64.66422466422466,70.13431013431014,234.23687423687423,-5.274725274725275,164.6886446886447,131.47741147741147,25.2014652014652,140.46398046398048,306.5201465201465,52.55189255189255,24.42002442002442,83.02808302808303,-61.92918192918193,-7.228327228327228,-115.45787545787546,74.82295482295483,306.5201465201465
58.41269841269841,48.64468864468864,56.06837606837607,86.54456654456655,83.80952380952381,33.40659340659341,63.101343101343105,70.52503052503053,255.72649572649573,-24.42002442002442,154.52991452991452,123.27228327228327,11.526251526251526,132.64957264957266,310.03663003663,53.333333333333336,9.963369963369964,78.33943833943835,-55.67765567765568,-13.870573870573871,-114.28571428571429,67.00854700854701,310.03663003663
57.24053724053724,42.39316239316239,50.989010989010985,92.7960927960928,81.85592185592185,18.168498168498168,64.66422466422466,79.12087912087912,276.8253968253968,-42.78388278388278,140.46398046398048,124.05372405372405,0.19536019536019536,131.86813186813185,310.8180708180708,56.06837606837607,-2.93040293040293,75.6043956043956,-50.598290598290596,-22.857142857142858,-110.37851037851038,67.78998778998779,310.8180708180708
57.63125763125763,42.002442002442,48.25396825396825,85.37240537240537,81.46520146520146,9.181929181929181,73.65079365079364,69.74358974358974,297.53357753357756,-55.28693528693529,138.5103785103785,102.56410256410257,-0.9768009768009768,127.57020757020757,307.6923076923077,48.25396825396825,-13.089133089133089,79.51159951159951,-47.863247863247864,-22.075702075702075,-115.84859584859585,66.61782661782662,307.6923076923077
63.101343101343105,39.26739926739927,40.04884004884005,76.77655677655677,85.76312576312576,6.056166056166056,67.78998778998779,59.975579975579976,307.6923076923077,-77.55799755799755,133.04029304029305,84.59096459096459,-8.00976800976801,107.25274725274726,301.44078144078145,47.081807081807085,-31.45299145299145,80.68376068376068,-39.65811965811966,-13.47985347985348,-124.83516483516483,48.64468864468864,301.44078144078145
70.91575091575092,33.7973137973138,33.01587301587302,70.52503052503053,93.96825396825396,3.3211233211233213,58.02197802197802,53.724053724053725,319.023199023199,-100.61050061050061,124.44444444444444,94.35897435897436,-8.791208791208792,72.08791208791209,298.7057387057387,75.21367521367522,-51.77045177045177,77.16727716727716,-32.62515262515262,0.19536019536019536,-153.74847374847374,36.92307692307692,298.7057387057387
76.77655677655677,31.45299145299145,27.155067155067155,63.101343101343105,101.39194139194139,1.3675213675213675,52.55189255189255,42.78388278388278,333.8705738705739,-119.75579975579976,115.84859584859585,95.53113553113553,-2.93040293040293,34.57875457875458,298.31501831501834,95.53113553113553,-70.52503052503053,75.21367521367522,-26.764346764346765,8.791208791208792,-175.23809523809524,20.903540903540904,298.31501831501834
75.6043956043956,32.62515262515262,17.387057387057386,58.8034188034188,102.17338217338218,-0.5860805860805861,41.221001221001224,43.17460317460318,333.0891330891331,-140.0732600732601,106.47130647130648,84.2002442002442,-27.545787545787547,14.261294261294262,305.34798534798534,92.01465201465201,-88.1074481074481,67.00854700854701,-16.996336996336996,0.9768009768009768,-182.66178266178267,0.5860805860805861,305.34798534798534
75.6043956043956,29.89010989010989,8.791208791208792,58.8034188034188,101.39194139194139,-4.102564102564102,32.234432234432234,45.12820512820513,332.6984126984127,-153.74847374847374,96.7032967032967,85.37240537240537,-51.37973137973138,0.19536019536019536,314.72527472527474,96.7032967032967,-96.31257631257631,59.584859584859586,-8.4004884004884,-4.884004884004884,-196.33699633699635,-12.307692307692308,314.72527472527474
77.55799755799755,22.075702075702075,4.884004884004884,60.757020757020754,105.2991452991453,-6.837606837606837,35.75091575091575,32.62515262515262,335.8241758241758,-158.82783882783883,89.27960927960928,93.96825396825396,-42.78388278388278,-27.155067155067155,313.94383394383397,117.8021978021978,-95.92185592185592,60.757020757020754,-4.493284493284493,0.9768009768009768,-193.2112332112332,-33.40659340659341,313.94383394383397
83.80952380952381,13.870573870573871,0.5860805860805861,60.757020757020754,112.72283272283272,-6.837606837606837,34.18803418803419,20.903540903540904,330.3540903540904,-162.73504273504273,84.59096459096459,99.04761904761905,-49.03540903540904,-45.90964590964591,313.5531135531136,133.04029304029305,-91.23321123321124,57.24053724053724,-0.19536019536019536,8.4004884004884,-203.36996336996336,-44.346764346764346,313.5531135531136
82.63736263736264,8.791208791208792,-1.3675213675213675,60.757020757020754,115.84859584859585,-8.00976800976801,22.075702075702075,20.903540903540904,319.023199023199,-170.15873015873015,74.04151404151405,108.81562881562881,-66.61782661782662,-54.505494505494504,309.6459096459096,144.76190476190476,-92.01465201465201,46.69108669108669,1.7582417582417582,1.3675213675213675,-194.77411477411476,-61.53846153846154,309.6459096459096
78.73015873015873,3.3211233211233213,-1.3675213675213675,60.366300366300365,117.8021978021978,-11.916971916971917,16.214896214896214,19.731379731379732,311.2087912087912,-181.4896214896215,61.14774114774115,120.92796092796092,-58.8034188034188,-87.71672771672772,297.53357753357756,161.17216117216117,-95.14041514041514,38.095238095238095,1.7582417582417582,-2.148962148962149,-191.25763125763126,-66.61782661782662,297.53357753357756
75.6043956043956,0.5860805860805861,-0.19536019536019536,58.02197802197802,120.53724053724054,-15.824175824175825,16.214896214896214,13.089133089133089,304.56654456654456,-188.13186813186815,58.41269841269841,119.75579975579976,-67.3992673992674,-93.57753357753357,284.63980463980465,171.33089133089132,-99.04761904761905,33.40659340659341,0.5860805860805861,0.9768009768009768,-195.16483516483515,-71.30647130647131,284.63980463980465
66.22710622710623,-2.148962148962149,-0.5860805860805861,55.67765567765568,115.84859584859585,-20.903540903540904,13.089133089133089,11.526251526251526,295.97069597069594,-193.6019536019536,57.24053724053724,117.8021978021978,-76.77655677655677,-102.17338217338218,273.3089133089133,183.83394383394383,-105.68986568986568,27.936507936507937,0.9768009768009768,6.446886446886447,-199.07203907203908,-81.85592185592185,273.3089133089133
63.101343101343105,-6.837606837606837,-0.5860805860805861,58.41269841269841,116.23931623931624,-25.2014652014652,9.181929181929181,13.089133089133089,285.42124542124543,-191.25763125763126,49.81684981684982,127.17948717948718,-84.59096459096459,-106.47130647130648,263.1501831501831,200.24420024420024,-109.59706959706959,24.02930402930403,0.9768009768009768,8.00976800976801,-197.8998778998779,-84.2002442002442,263.1501831501831
63.88278388278388,-9.963369963369964,2.148962148962149,58.8034188034188,117.4114774114774,-29.89010989010989,13.47985347985348,13.870573870573871,271.35531135531136,-183.83394383394383,49.42612942612943,130.3052503052503,-95.92185592185592,-93.18681318681318,253.77289377289378,203.76068376068375,-108.03418803418803,26.764346764346765,-1.7582417582417582,8.4004884004884,-197.8998778998779,-77.94871794871794,253.77289377289378
56.06837606837607,-10.744810744810744,0.19536019536019536,61.53846153846154,109.59706959706959,-35.75091575091575,14.652014652014651,18.94993894993895,243.6141636141636,-181.0989010989011,53.333333333333336,134.6031746031746,-98.26617826617827,-101.78266178266178,243.6141636141636,207.66788766788767,-105.68986568986568,28.327228327228326,0.19536019536019536,4.102564102564102,-179.14529914529913,-92.7960927960928,243.6141636141636
49.81684981684982,-13.47985347985348,0.19536019536019536,66.61782661782662,101.78266178266178,-40.43956043956044,13.870573870573871,27.545787545787547,221.73382173382174,-174.84737484737485,41.61172161172161,155.3113553113553,-89.27960927960928,-107.25274725274726,219.78021978021977,222.12454212454213,-100.21978021978022,29.10866910866911,0.19536019536019536,-9.181929181929181,-154.52991452991452,-85.37240537240537,219.78021978021977
49.03540903540904,-9.181929181929181,1.3675213675213675,60.366300366300365,100.21978021978022,-40.04884004884005,16.605616605616607,25.592185592185594,210.4029304029304,-172.11233211233213,40.43956043956044,154.13919413919413,-76.77655677655677,-101.39194139194139,190.86691086691087,220.95238095238096,-89.67032967032966,29.89010989010989,-0.9768009768009768,-18.168498168498168,-145.93406593406593,-65.83638583638583,190.86691086691087
45.90964590964591,-6.056166056166056,0.5860805860805861,51.37973137973138,93.96825396825396,-33.7973137973138,16.214896214896214,16.996336996336996,192.03907203907204,-172.11233211233213,45.51892551892552,128.74236874236874,-71.6971916971917,-105.68986568986568,161.17216117216117,211.57509157509156,-81.46520146520146,30.671550671550673,-0.19536019536019536,-13.089133089133089,-146.32478632478632,-66.22710622710623,161.17216117216117
49.03540903540904,-7.228327228327228,-5.274725274725275,53.333333333333336,92.01465201465201,-25.982905982905983,6.056166056166056,18.55921855921856,189.6947496947497,-165.86080586080587,30.671550671550673,115.84859584859585,-85.76312576312576,-94.35897435897436,136.55677655677655,216.26373626373626,-76.38583638583638,26.373626373626372,5.665445665445666,-4.493284493284493,-168.2051282051282,-57.24053724053724,136.55677655677655
59.1941391941392,-9.963369963369964,-6.837606837606837,49.42612942612943,95.53113553113553,-20.903540903540904,3.3211233211233213,13.47985347985348,184.22466422466422,-150.62271062271063,18.55921855921856,118.1929181929182,-78.33943833943835,-91.23321123321124,111.94139194139194,229.93894993894995,-65.44566544566544,25.2014652014652,7.228327228327228,6.446886446886447,-163.9072039072039,-67.78998778998779,111.94139194139194
61.92918192918193,-11.135531135531135,-5.665445665445666,50.20757020757021,95.92185592185592,-15.042735042735043,4.102564102564102,10.354090354090355,165.86080586080587,-133.43101343101344,18.94993894993895,119.75579975579976,-69.35286935286935,-92.4053724053724,91.62393162393163,242.44200244200243,-55.67765567765568,25.982905982905983,6.056166056166056,16.605616605616607,-163.12576312576311,-72.08791208791209,91.62393162393163
61.92918192918193,-8.4004884004884,-6.056166056166056,51.77045177045177,93.57753357753357,-11.135531135531135,-1.3675213675213675,17.77777777777778,148.66910866910868,-115.84859584859585,20.903540903540904,109.59706959706959,-72.86935286935287,-68.57142857142857,73.65079365079364,232.28327228327228,-46.3003663003663,20.12210012210012,6.446886446886447,6.446886446886447,-147.1062271062271,-70.91575091575092,73.65079365079364
63.492063492063494,-6.056166056166056,0.19536019536019536,47.081807081807085,96.7032967032967,-6.056166056166056,-2.93040293040293,18.168498168498168,127.17948717948718,-98.26617826617827,32.234432234432234,103.34554334554335,-61.14774114774115,-47.081807081807085,49.03540903540904,225.64102564102564,-30.28083028083028,17.387057387057386,0.19536019536019536,-6.837606837606837,-121.7094017094017,-60.366300366300365,49.03540903540904
70.91575091575092,-4.493284493284493,9.181929181929181,42.002442002442,106.08058608058609,0.9768009768009768,3.3211233211233213,7.228327228327228,117.8021978021978,-79.51159951159951,49.81684981684982,96.7032967032967,-30.28083028083028,-50.20757020757021,30.671550671550673,236.1904761904762,-9.181929181929181,19.34065934065934,-8.791208791208792,-0.5860805860805861,-127.96092796092796,-49.42612942612943,30.671550671550673
76.77655677655677,-5.665445665445666,16.996336996336996,34.57875457875458,111.94139194139194,7.619047619047619,3.3211233211233213,0.5860805860805861,111.15995115995116,-66.22710622710623,58.8034188034188,86.15384615384616,-16.214896214896214,-44.737484737484735,9.963369963369964,242.44200244200243,7.228327228327228,15.433455433455434,-16.605616605616607,0.5860805860805861,-132.25885225885227,-37.313797313797316,9.963369963369964
79.9023199023199,-4.884004884004884,21.294261294261293,24.02930402930403,113.5042735042735,10.744810744810744,-1.3675213675213675,-0.19536019536019536,108.81562881562881,-57.24053724053724,53.724053724053725,77.16727716727716,-31.062271062271062,-21.684981684981686,0.19536019536019536,237.36263736263737,20.512820512820515,5.665445665445666,-20.903540903540904,-10.744810744810744,-124.44444444444444,-35.36019536019536,0.19536019536019536
84.2002442002442,-3.711843711843712,26.764346764346765,14.652014652014651,117.8021978021978,11.916971916971917,-1.7582417582417582,-5.274725274725275,113.5042735042735,-39.65811965811966,38.095238095238095,60.757020757020754,-25.982905982905983,-24.81074481074481,-10.354090354090355,235.018315018315,33.40659340659341,-0.9768009768009768,-26.373626373626372,-15.042735042735043,-120.53724053724054,-38.485958485958484,-10.354090354090355
86.15384615384616,2.5396825396825395,27.155067155067155,4.884004884004884,120.53724053724054,15.042735042735043,-0.5860805860805861,-11.526251526251526,122.4908424908425,-23.247863247863247,24.02930402930403,33.40659340659341,-31.062271062271062,-11.916971916971917,-25.982905982905983,227.59462759462758,38.876678876678874,-6.837606837606837,-26.764346764346765,-13.089133089133089,-122.4908424908425,-41.61172161172161,-25.982905982905983
88.4981684981685,3.3211233211233213,25.2014652014652,4.102564102564102,121.31868131868131,14.261294261294262,-0.9768009768009768,-12.698412698412698,122.1001221001221,-12.698412698412698,12.307692307692308,17.387057387057386,-23.63858363858364,-4.884004884004884,-50.989010989010985,221.34310134310135,41.221001221001224,-12.307692307692308,-24.81074481074481,-15.433455433455434,-109.98778998778998,-39.65811965811966,-50.989010989010985
85.76312576312576,4.102564102564102,28.71794871794872,1.3675213675213675,120.53724053724054,12.698412698412698,1.7582417582417582,-14.261294261294262,124.44444444444444,-3.3211233211233213,-0.9768009768009768,4.493284493284493,0.19536019536019536,-16.214896214896214,-73.65079365079364,216.65445665445665,44.737484737484735,-14.652014652014651,-28.327228327228326,-17.77777777777778,-94.35897435897436,-33.01587301587302,-73.65079365079364
80.68376068376068,7.619047619047619,27.545787545787547,-2.93040293040293,114.67643467643468,11.526251526251526,5.665445665445666,-19.34065934065934,118.97435897435898,7.619047619047619,-7.228327228327228,-17.387057387057386,9.572649572649572,-22.857142857142858,-85.37240537240537,201.02564102564102,46.69108669108669,-14.652014652014651,-27.155067155067155,-18.55921855921856,-79.9023199023199,-41.61172161172161,-85.37240537240537
68.18070818070818,2.93040293040293,25.2014652014652,0.5860805860805861,99.82905982905983,3.711843711843712,9.572649572649572,-15.824175824175825,108.03418803418803,17.77777777777778,-22.466422466422465,-28.327228327228326,6.837606837606837,-13.870573870573871,-101.39194139194139,184.22466422466422,47.081807081807085,-14.261294261294262,-24.81074481074481,-26.373626373626372,-62.31990231990232,-28.71794871794872,-101.39194139194139
62.71062271062271,4.493284493284493,25.592185592185594,-9.572649572649572,96.31257631257631,1.7582417582417582,13.089133089133089,-26.373626373626372,104.9084249084249,24.81074481074481,-26.764346764346765,-48.64468864468864,19.731379731379732,-22.075702075702075,-104.9084249084249,162.73504273504273,49.81684981684982,-16.214896214896214,-25.2014652014652,-34.18803418803419,-52.16117216117216,-18.168498168498168,-104.9084249084249
63.101343101343105,8.791208791208792,21.294261294261293,-18.168498168498168,97.87545787545787,7.619047619047619,9.572649572649572,-39.65811965811966,109.59706959706959,29.10866910866911,-22.466422466422465,-63.88278388278388,26.764346764346765,-24.81074481074481,-103.34554334554335,154.13919413919413,51.37973137973138,-15.824175824175825,-20.903540903540904,-29.10866910866911,-53.724053724053725,-20.903540903540904,-103.34554334554335
61.53846153846154,9.181929181929181,15.433455433455434,-14.261294261294262,100.21978021978022,11.135531135531135,3.711843711843712,-42.39316239316239,117.8021978021978,32.62515262515262,-25.2014652014652,-87.71672771672772,13.47985347985348,-3.3211233211233213,-107.64346764346764,135.3846153846154,45.51892551892552,-20.12210012210012,-15.042735042735043,-26.764346764346765,-70.91575091575092,2.93040293040293,-107.64346764346764
59.1941391941392,11.916971916971917,13.870573870573871,-16.605616605616607,103.34554334554335,14.261294261294262,0.9768009768009768,-49.42612942612943,129.52380952380952,27.545787545787547,-27.936507936507937,-111.94139194139194,11.916971916971917,3.711843711843712,-110.76923076923077,112.33211233211233,40.43956043956044,-23.63858363858364,-13.47985347985348,-31.062271062271062,-45.90964590964591,-0.5860805860805861,-110.76923076923077
58.02197802197802,9.963369963369964,10.744810744810744,-13.870573870573871,105.2991452991453,15.433455433455434,2.5396825396825395,-58.8034188034188,141.63614163614164,33.7973137973138,-36.92307692307692,-111.94139194139194,25.2014652014652,-5.665445665445666,-111.55067155067155,118.58363858363859,38.095238095238095,-21.294261294261293,-10.354090354090355,-23.247863247863247,-34.18803418803419,-6.446886446886447,-111.55067155067155
50.20757020757021,7.619047619047619,6.446886446886447,-12.307692307692308,101.39194139194139,15.433455433455434,4.493284493284493,-68.57142857142857,144.76190476190476,50.989010989010985,-61.14774114774115,-119.75579975579976,22.075702075702075,-2.148962148962149,-118.1929181929182,113.11355311355311,31.843711843711844,-23.247863247863247,-6.056166056166056,-20.12210012210012,-24.02930402930403,1.7582417582417582,-118.1929181929182
35.75091575091575,12.307692307692308,5.665445665445666,-15.824175824175825,95.14041514041514,15.433455433455434,1.3675213675213675,-72.86935286935287,139.29181929181928,43.956043956043956,-68.96214896214896,-139.29181929181928,24.02930402930403,0.19536019536019536,-133.43101343101344,85.37240537240537,21.684981684981686,-31.843711843711844,-5.274725274725275,-38.485958485958484,10.744810744810744,16.605616605616607,-133.43101343101344
23.63858363858364,17.387057387057386,3.3211233211233213,-22.466422466422465,90.45177045177046,18.55921855921856,-2.93040293040293,-83.80952380952381,136.16605616605617,26.764346764346765,-74.82295482295483,-151.4041514041514,50.598290598290596,-28.71794871794872,-153.35775335775335,68.18070818070818,11.916971916971917,-37.704517704517706,-2.93040293040293,-45.12820512820513,48.64468864468864,13.089133089133089,-153.35775335775335
13.089133089133089,16.605616605616607,2.93040293040293,-21.684981684981686,89.27960927960928,20.12210012210012,-3.3211233211233213,-93.57753357753357,136.55677655677655,20.903540903540904,-82.63736263736264,-163.5164835164835,58.41269841269841,-33.01587301587302,-173.67521367521368,59.584859584859586,1.7582417582417582,-42.39316239316239,-2.5396825396825395,-39.26739926739927,63.88278388278388,28.327228327228326,-173.67521367521368
5.665445665445666,20.12210012210012,4.493284493284493,-29.89010989010989,90.45177045177046,21.294261294261293,-4.884004884004884,-106.08058608058609,136.16605616605617,13.870573870573871,-90.06105006105007,-181.0989010989011,50.989010989010985,-28.327228327228326,-186.95970695970695,43.56532356532357,-6.837606837606837,-52.16117216117216,-4.102564102564102,-40.83028083028083,98.26617826617827,22.466422466422465,-186.95970695970695
-4.493284493284493,22.466422466422465,3.711843711843712,-39.65811965811966,83.80952380952381,20.903540903540904,-9.572649572649572,-111.94139194139194,132.25885225885227,0.9768009768009768,-98.26617826617827,-191.25763125763126,50.20757020757021,-31.45299145299145,-200.63492063492063,26.373626373626372,-18.168498168498168,-57.24053724053724,-3.3211233211233213,-44.737484737484735,129.9145299145299,18.168498168498168,-200.63492063492063
-9.181929181929181,26.764346764346765,0.19536019536019536,-45.90964590964591,79.9023199023199,20.12210012210012,-11.135531135531135,-117.4114774114774,127.17948717948718,-4.102564102564102,-97.87545787545787,-199.46275946275946,41.61172161172161,-15.433455433455434,-211.57509157509156,11.916971916971917,-25.982905982905983,-55.67765567765568,0.19536019536019536,-43.56532356532357,135.77533577533578,33.7973137973138,-211.57509157509156
-20.512820512820515,29.10866910866911,-5.665445665445666,-46.69108669108669,67.3992673992674,15.433455433455434,-10.744810744810744,-116.63003663003663,113.11355311355311,-11.135531135531135,-95.92185592185592,-205.71428571428572,24.81074481074481,-7.619047619047619,-215.48229548229548,-1.3675213675213675,-37.313797313797316,-52.94261294261294,6.056166056166056,-44.737484737484735,142.41758241758242,37.313797313797316,-215.48229548229548
-31.45299145299145,29.499389499389498,-8.4004884004884,-48.25396825396825,53.333333333333336,7.619047619047619,-9.181929181929181,-111.55067155067155,91.23321123321124,-31.062271062271062,-88.4981684981685,-203.36996336996336,64.27350427350427,-52.16117216117216,-230.72039072039072,-14.261294261294262,-49.03540903540904,-47.472527472527474,8.791208791208792,-48.25396825396825,166.64224664224665,41.221001221001224,-230.72039072039072
-41.61172161172161,32.62515262515262,-7.619047619047619,-44.737484737484735,41.61172161172161,-1.3675213675213675,-0.5860805860805861,-101.39194139194139,67.00854700854701,-37.704517704517706,-79.9023199023199,-193.99267399267399,77.94871794871794,-64.66422466422466,-235.7997557997558,-23.63858363858364,-56.06837606837607,-38.876678876678874,8.00976800976801,-53.333333333333336,207.27716727716728,25.982905982905983,-235.7997557997558
-53.724053724053725,32.234432234432234,-4.493284493284493,-35.75091575091575,24.81074481074481,-15.042735042735043,8.4004884004884,-81.46520146520146,49.42612942612943,-24.81074481074481,-99.43833943833944,-193.2112332112332,55.28693528693529,-54.89621489621489,-223.6874236874237,-46.3003663003663,-63.492063492063494,-31.062271062271062,4.884004884004884,-60.366300366300365,234.23687423687423,16.605616605616607,-223.6874236874237
-61.14774114774115,35.36019536019536,1.3675213675213675,-39.65811965811966,12.698412698412698,-19.731379731379732,20.512820512820515,-77.55799755799755,22.857142857142858,-17.77777777777778,-90.84249084249085,-201.02564102564102,58.41269841269841,-46.3003663003663,-230.32967032967034,-70.52503052503053,-67.3992673992674,-18.55921855921856,-0.9768009768009768,-65.44566544566544,265.1037851037851,18.168498168498168,-230.32967032967034
-60.757020757020754,38.876678876678874,3.711843711843712,-42.39316239316239,5.274725274725275,-15.824175824175825,24.42002442002442,-73.65079365079364,21.684981684981686,-27.545787545787547,-81.46520146520146,-190.86691086691087,79.12087912087912,-52.94261294261294,-232.28327228327228,-72.47863247863248,-72.86935286935287,-4.884004884004884,-3.3211233211233213,-59.1941391941392,269.7924297924298,19.731379731379732,-232.28327228327228
-58.41269841269841,35.75091575091575,0.5860805860805861,-37.704517704517706,-1.3675213675213675,-10.744810744810744,19.34065934065934,-65.83638583638583,17.387057387057386,-36.53235653235653,-78.33943833943835,-172.8937728937729,73.65079365079364,-45.51892551892552,-236.1904761904762,-63.88278388278388,-83.41880341880342,5.665445665445666,-0.19536019536019536,-44.737484737484735,251.8192918192918,29.10866910866911,-236.1904761904762
-61.92918192918193,37.313797313797316,-1.3675213675213675,-35.36019536019536,-15.433455433455434,-4.493284493284493,13.870573870573871,-54.505494505494504,3.3211233211233213,-43.56532356532357,-71.6971916971917,-176.01953601953602,58.02197802197802,-25.982905982905983,-236.5811965811966,-83.41880341880342,-90.45177045177046,9.181929181929181,1.7582417582417582,-44.737484737484735,254.16361416361417,31.843711843711844,-236.5811965811966
-63.88278388278388,38.876678876678874,-4.884004884004884,-31.843711843711844,-30.28083028083028,-0.19536019536019536,8.791208791208792,-39.26739926739927,-16.605616605616607,-50.598290598290596,-67.00854700854701,-167.03296703296704,60.366300366300365,-18.94993894993895,-246.34920634920636,-97.09401709401709,-93.18681318681318,9.181929181929181,5.274725274725275,-39.65811965811966,262.36874236874235,29.499389499389498,-246.34920634920636
-63.88278388278388,32.62515262515262,-8.791208791208792,-20.903540903540904,-45.51892551892552,0.19536019536019536,8.4004884004884,-24.42002442002442,-38.095238095238095,-40.43956043956044,-70.52503052503053,-138.9010989010989,66.22710622710623,-11.135531135531135,-253.77289377289378,-90.84249084249085,-86.54456654456655,11.526251526251526,9.181929181929181,-23.63858363858364,271.74603174603175,20.12210012210012,-253.77289377289378
-63.88278388278388,29.499389499389498,-6.446886446886447,-16.214896214896214,-58.41269841269841,5.274725274725275,12.307692307692308,-17.387057387057386,-47.081807081807085,-18.55921855921856,-75.6043956043956,-131.08669108669108,86.15384615384616,-14.652014652014651,-241.26984126984127,-103.73626373626374,-75.21367521367522,11.526251526251526,6.837606837606837,-16.605616605616607,281.12332112332115,19.34065934065934,-241.26984126984127
-65.05494505494505,28.327228327228326,-7.619047619047619,-12.307692307692308,-70.13431013431014,9.572649572649572,6.837606837606837,-2.93040293040293,-61.92918192918193,-10.744810744810744,-73.65079365079364,-127.57020757020757,97.48473748473748,-4.884004884004884,-241.66056166056165,-126.3980463980464,-65.83638583638583,4.493284493284493,8.00976800976801,-18.94993894993895,297.14285714285717,25.2014652014652,-241.66056166056165
-68.57142857142857,24.02930402930403,-10.744810744810744,-6.837606837606837,-81.07448107448107,13.089133089133089,-0.5860805860805861,4.884004884004884,-66.22710622710623,-4.102564102564102,-77.55799755799755,-119.75579975579976,128.35164835164835,-25.2014652014652,-232.67399267399267,-140.46398046398048,-54.89621489621489,-0.5860805860805861,11.135531135531135,-18.168498168498168,313.1623931623932,17.387057387057386,-232.67399267399267
-71.30647130647131,13.47985347985348,-12.698412698412698,1.7582417582417582,-86.93528693528694,15.433455433455434,-2.93040293040293,5.274725274725275,-61.53846153846154,24.42002442002442,-97.87545787545787,-122.1001221001221,116.63003663003663,-5.665445665445666,-218.998778998779,-150.23199023199024,-39.65811965811966,-8.791208791208792,13.089133089133089,-8.791208791208792,308.86446886446885,22.857142857142858,-218.998778998779
-67.3992673992674,7.619047619047619,-15.433455433455434,3.3211233211233213,-84.59096459096459,18.55921855921856,-8.4004884004884,2.148962148962149,-62.31990231990232,43.956043956043956,-102.17338217338218,-126.3980463980464,126.3980463980464,6.056166056166056,-218.6080586080586,-161.95360195360195,-21.684981684981686,-20.12210012210012,15.824175824175825,-0.9768009768009768,308.47374847374846,28.71794871794872,-218.6080586080586
-65.83638583638583,0.9768009768009768,-17.77777777777778,0.5860805860805861,-83.41880341880342,20.903540903540904,-18.55921855921856,-0.19536019536019536,-65.44566544566544,53.333333333333336,-102.95482295482296,-119.75579975579976,140.46398046398048,11.526251526251526,-219.78021978021977,-168.2051282051282,-8.00976800976801,-31.843711843711844,18.168498168498168,7.619047619047619,311.5995115995116,27.936507936507937,-219.78021978021977
-63.492063492063494,-8.00976800976801,-18.168498168498168,2.93040293040293,-79.12087912087912,18.55921855921856,-25.982905982905983,-0.19536019536019536,-72.47863247863248,63.101343101343105,-102.56410256410257,-114.67643467643468,146.7155067155067,18.168498168498168,-218.2173382173382,-174.84737484737485,3.711843711843712,-40.43956043956044,18.55921855921856,15.042735042735043,323.7118437118437,19.731379731379732,-218.2173382173382
-63.101343101343105,-12.307692307692308,-19.34065934065934,7.619047619047619,-76.77655677655677,12.307692307692308,-29.499389499389498,5.274725274725275,-75.995115995116,67.00854700854701,-95.92185592185592,-113.89499389499389,146.32478632478632,42.002442002442,-222.9059829059829,-186.17826617826617,15.433455433455434,-47.472527472527474,19.731379731379732,13.870573870573871,330.3540903540904,27.936507936507937,-222.9059829059829
-63.101343101343105,-19.731379731379732,-18.94993894993895,9.572649572649572,-73.65079365079364,4.102564102564102,-32.234432234432234,8.791208791208792,-75.21367521367522,67.78998778998779,-95.53113553113553,-107.25274725274726,152.18559218559218,48.25396825396825,-220.95238095238096,-192.42979242979243,23.247863247863247,-50.598290598290596,19.34065934065934,9.963369963369964,337.3870573870574,30.671550671550673,-220.95238095238096
-63.492063492063494,-24.81074481074481,-18.94993894993895,17.77777777777778,-69.74358974358974,-5.274725274725275,-33.01587301587302,18.55921855921856,-83.02808302808303,76.77655677655677,-98.26617826617827,-97.09401709401709,154.13919413919413,52.55189255189255,-210.4029304029304,-199.85347985347985,32.62515262515262,-50.989010989010985,19.34065934065934,-0.5860805860805861,340.1221001221001,39.26739926739927,-210.4029304029304
-61.53846153846154,-24.42002442002442,-17.387057387057386,15.824175824175825,-63.492063492063494,-10.744810744810744,-25.2014652014652,11.916971916971917,-86.15384615384616,83.41880341880342,-84.2002442002442,-105.68986568986568,152.96703296703296,60.757020757020754,-200.63492063492063,-208.05860805860806,45.12820512820513,-41.61172161172161,17.77777777777778,-1.3675213675213675,334.26129426129427,37.313797313797316,-200.63492063492063
-54.114774114774114,-25.592185592185594,-15.824175824175825,7.228327228327228,-55.28693528693529,-8.791208791208792,-24.81074481074481,0.5860805860805861,-97.09401709401709,85.76312576312576,-62.31990231990232,-114.67643467643468,156.4835164835165,57.63125763125763,-191.64835164835165,-212.35653235653237,50.989010989010985,-26.764346764346765,16.214896214896214,3.711843711843712,313.1623931623932,36.14163614163614,-191.64835164835165
-43.17460317460318,-30.28083028083028,-16.996336996336996,6.056166056166056,-41.221001221001224,-8.791208791208792,-28.327228327228326,-4.884004884004884,-110.37851037851038,83.02808302808303,-40.43956043956044,-96.7032967032967,168.5958485958486,28.327228327228326,-172.8937728937729,-189.3040293040293,50.20757020757021,-11.526251526251526,17.387057387057386,14.652014652014651,281.12332112332115,26.373626373626372,-172.8937728937729
-38.095238095238095,-33.7973137973138,-15.433455433455434,1.7582417582417582,-34.57875457875458,-11.916971916971917,-25.2014652014652,-12.307692307692308,-122.1001221001221,79.9023199023199,-18.168498168498168,-86.15384615384616,149.84126984126985,40.43956043956044,-166.25152625152626,-171.7216117216117,51.37973137973138,4.493284493284493,15.824175824175825,24.02930402930403,272.9181929181929,8.00976800976801,-166.25152625152626
-46.69108669108669,-36.53235653235653,-15.433455433455434,6.056166056166056,-42.002442002442,-16.214896214896214,-28.71794871794872,-4.884004884004884,-132.25885225885227,81.07448107448107,-12.307692307692308,-94.74969474969475,94.74969474969475,107.64346764346764,-180.70818070818072,-181.4896214896215,50.20757020757021,13.089133089133089,15.824175824175825,15.433455433455434,249.08424908424908,50.20757020757021,-180.70818070818072
-52.94261294261294,-36.92307692307692,-13.089133089133089,4.102564102564102,-47.081807081807085,-18.168498168498168,-27.936507936507937,-3.3211233211233213,-146.32478632478632,88.4981684981685,-10.744810744810744,-100.21978021978022,89.27960927960928,92.7960927960928,-162.34432234432234,-190.0854700854701,54.114774114774114,19.34065934065934,13.47985347985348,9.181929181929181,237.36263736263737,50.989010989010985,-162.34432234432234
-59.584859584859586,-40.04884004884005,-11.916971916971917,-0.19536019536019536,-58.02197802197802,-20.903540903540904,-18.94993894993895,-13.089133089133089,-152.57631257631257,91.23321123321124,0.5860805860805861,-95.53113553113553,95.14041514041514,95.92185592185592,-169.76800976800976,-178.36385836385836,63.492063492063494,30.671550671550673,12.307692307692308,20.512820512820515,227.2039072039072,52.16117216117216,-169.76800976800976
-71.6971916971917,-46.3003663003663,-11.526251526251526,-3.711843711843712,-75.995115995116,-22.466422466422465,-14.261294261294262,-20.512820512820515,-170.94017094017093,83.02808302808303,14.652014652014651,-92.7960927960928,85.76312576312576,74.04151404151405,-163.9072039072039,-162.34432234432234,66.22710622710623,38.485958485958484,11.916971916971917,29.499389499389498,217.04517704517704,32.234432234432234,-163.9072039072039
-83.02808302808303,-47.863247863247864,-9.181929181929181,-9.181929181929181,-89.67032967032966,-22.075702075702075,-15.042735042735043,-22.466422466422465,-174.84737484737485,73.26007326007326,13.47985347985348,-92.01465201465201,87.32600732600733,33.7973137973138,-142.41758241758242,-158.82783882783883,61.53846153846154,39.65811965811966,9.572649572649572,23.247863247863247,205.32356532356533,20.903540903540904,-142.41758241758242
-95.92185592185592,-49.42612942612943,-8.791208791208792,-13.47985347985348,-103.73626373626374,-25.2014652014652,-11.916971916971917,-26.373626373626372,-190.86691086691087,54.89621489621489,18.168498168498168,-84.98168498168498,69.35286935286935,7.619047619047619,-132.64957264957266,-146.7155067155067,51.77045177045177,46.3003663003663,9.181929181929181,21.294261294261293,197.11843711843713,6.446886446886447,-132.64957264957266
-107.25274725274726,-52.55189255189255,-7.228327228327228,-13.870573870573871,-117.02075702075702,-26.373626373626372,-5.274725274725275,-32.62515262515262,-204.15140415140417,47.472527472527474,25.982905982905983,-85.76312576312576,57.24053724053724,-11.135531135531135,-129.9145299145299,-132.25885225885227,44.346764346764346,57.24053724053724,7.619047619047619,24.02930402930403,176.8009768009768,4.493284493284493,-129.9145299145299
-112.33211233211233,-51.37973137973138,-6.446886446886447,-15.042735042735043,-122.1001221001221,-21.684981684981686,-4.493284493284493,-36.92307692307692,-210.79365079365078,44.346764346764346,31.843711843711844,-86.15384615384616,47.472527472527474,5.665445665445666,-153.35775335775335,-119.75579975579976,42.002442002442,60.366300366300365,6.837606837606837,25.2014652014652,172.50305250305252,17.77777777777778,-153.35775335775335
-117.4114774114774,-52.16117216117216,-6.837606837606837,-18.94993894993895,-128.74236874236874,-20.12210012210012,-6.837606837606837,-38.876678876678874,-217.82661782661782,44.346764346764346,35.36019536019536,-77.94871794871794,56.84981684981685,-15.042735042735043,-151.01343101343102,-106.08058608058609,43.17460317460318,59.975579975579976,7.228327228327228,23.247863247863247,160.0,20.512820512820515,-151.01343101343102
-123.27228327228327,-54.114774114774114,-7.228327228327228,-24.02930402930403,-136.55677655677655,-24.81074481074481,-7.228327228327228,-39.26739926739927,-220.95238095238096,38.876678876678874,38.876678876678874,-73.26007326007326,29.499389499389498,-0.5860805860805861,-149.45054945054946,-94.35897435897436,47.863247863247864,55.67765567765568,7.619047619047619,25.592185592185594,141.63614163614164,20.12210012210012,-149.45054945054946
-124.44444444444444,-52.94261294261294,-10.354090354090355,-28.71794871794872,-138.1196581196581,-31.062271062271062,-10.354090354090355,-35.75091575091575,-210.4029304029304,19.731379731379732,34.18803418803419,-70.13431013431014,-15.042735042735043,13.870573870573871,-140.0732600732601,-84.2002442002442,50.20757020757021,45.12820512820513,10.744810744810744,18.168498168498168,132.64957264957266,4.102564102564102,-140.0732600732601
-129.52380952380952,-57.63125763125763,-11.526251526251526,-30.671550671550673,-142.41758241758242,-43.56532356532357,-14.261294261294262,-28.71794871794872,-198.2905982905983,10.354090354090355,8.4004884004884,-54.505494505494504,-31.062271062271062,-2.93040293040293,-129.52380952380952,-68.57142857142857,47.081807081807085,29.499389499389498,11.916971916971917,6.446886446886447,124.44444444444444,0.5860805860805861,-129.52380952380952
-125.22588522588522,-56.84981684981685,-8.00976800976801,-44.737484737484735,-140.0732600732601,-49.81684981684982,-10.744810744810744,-34.18803418803419,-201.4163614163614,2.5396825396825395,6.446886446886447,-52.55189255189255,-41.221001221001224,-18.94993894993895,-120.14652014652015,-63.101343101343105,48.64468864468864,22.857142857142858,8.4004884004884,1.3675213675213675,113.5042735042735,-12.307692307692308,-120.14652014652015
-112.33211233211233,-54.114774114774114,-8.00976800976801,-53.724053724053725,-131.08669108669108,-44.346764346764346,-13.089133089133089,-40.04884004884005,-193.2112332112332,-8.00976800976801,4.884004884004884,-61.53846153846154,-33.40659340659341,-64.27350427350427,-105.68986568986568,-53.333333333333336,45.51892551892552,19.731379731379732,8.4004884004884,4.493284493284493,85.76312576312576,-39.65811965811966,-105.68986568986568
-101.39194139194139,-53.724053724053725,-8.791208791208792,-54.505494505494504,-123.27228327228327,-38.095238095238095,-17.387057387057386,-39.26739926739927,-186.95970695970695,-7.228327228327228,-5.665445665445666,-58.41269841269841,-49.42612942612943,-90.06105006105007,-84.98168498168498,-34.18803418803419,40.83028083028083,13.870573870573871,9.181929181929181,6.837606837606837,61.53846153846154,-77.16727716727716,-84.98168498168498
-87.32600732600733,-54.505494505494504,-4.884004884004884,-55.28693528693529,-113.89499389499389,-30.671550671550673,-15.824175824175825,-41.61172161172161,-173.2844932844933,-11.916971916971917,-6.446886446886447,-36.92307692307692,-76.38583638583638,-93.18681318681318,-62.71062271062271,2.5396825396825395,43.956043956043956,16.996336996336996,5.274725274725275,16.214896214896214,12.307692307692308,-84.59096459096459,-62.71062271062271
-75.995115995116,-54.114774114774114,-0.19536019536019536,-51.37973137973138,-104.12698412698413,-22.075702075702075,-11.526251526251526,-43.56532356532357,-144.37118437118437,-22.075702075702075,-14.652014652014651,-19.731379731379732,-58.02197802197802,-161.17216117216117,-23.247863247863247,41.221001221001224,42.78388278388278,22.075702075702075,0.5860805860805861,22.466422466422465,-31.45299145299145,-108.81562881562881,-23.247863247863247
-76.38583638583638,-50.598290598290596,1.3675213675213675,-43.956043956043956,-106.47130647130648,-20.12210012210012,-11.916971916971917,-29.89010989010989,-142.41758241758242,-33.01587301587302,-11.526251526251526,-8.4004884004884,-61.92918192918193,-187.35042735042734,-4.493284493284493,56.45909645909646,37.704517704517706,23.63858363858364,-0.9768009768009768,11.526251526251526,-45.12820512820513,-122.88156288156289,-4.493284493284493
-75.6043956043956,-47.081807081807085,7.619047619047619,-36.14163614163614,-108.03418803418803,-15.042735042735043,-8.4004884004884,-18.168498168498168,-144.76190476190476,-21.294261294261293,-0.19536019536019536,0.9768009768009768,-66.61782661782662,-146.32478632478632,-12.698412698412698,59.975579975579976,40.04884004884005,34.969474969474966,-7.228327228327228,0.19536019536019536,-68.18070818070818,-66.61782661782662,-12.698412698412698
-64.66422466422466,-45.51892551892552,11.916971916971917,-33.01587301587302,-97.48473748473748,-9.963369963369964,-0.19536019536019536,-21.684981684981686,-132.25885225885227,-25.2014652014652,18.168498168498168,13.870573870573871,5.274725274725275,-202.1978021978022,-8.791208791208792,79.9023199023199,43.17460317460318,47.472527472527474,-11.526251526251526,6.056166056166056,-103.73626373626374,-42.39316239316239,-8.791208791208792
-52.55189255189255,-45.51892551892552,9.963369963369964,-26.373626373626372,-86.54456654456655,-9.572649572649572,0.19536019536019536,-18.55921855921856,-145.93406593406593,-22.466422466422465,36.92307692307692,30.28083028083028,10.354090354090355,-189.6947496947497,-20.512820512820515,98.26617826617827,46.3003663003663,50.598290598290596,-9.572649572649572,11.916971916971917,-102.95482295482296,-50.989010989010985,-20.512820512820515
-43.17460317460318,-46.69108669108669,7.228327228327228,-16.996336996336996,-75.995115995116,-8.4004884004884,-6.837606837606837,-7.619047619047619,-153.35775335775335,9.963369963369964,26.373626373626372,42.39316239316239,-101.001221001221,-73.26007326007326,5.274725274725275,96.31257631257631,54.114774114774114,45.51892551892552,-6.837606837606837,2.93040293040293,-136.16605616605617,-27.936507936507937,5.274725274725275
-32.234432234432234,-47.081807081807085,6.446886446886447,-19.731379731379732,-60.366300366300365,-5.665445665445666,-9.963369963369964,-16.214896214896214,-127.57020757020757,-6.446886446886447,23.63858363858364,47.863247863247864,-89.67032967032966,-76.77655677655677,4.493284493284493,99.04761904761905,57.63125763125763,41.61172161172161,-6.056166056166056,2.5396825396825395,-168.98656898656898,0.19536019536019536,4.493284493284493
-26.373626373626372,-48.25396825396825,1.3675213675213675,-14.261294261294262,-53.333333333333336,-2.93040293040293,-9.963369963369964,-20.903540903540904,-125.61660561660561,2.5396825396825395,8.791208791208792,48.25396825396825,-122.4908424908425,-111.55067155067155,52.55189255189255,116.63003663003663,60.757020757020754,38.485958485958484,-0.9768009768009768,7.619047619047619,-183.44322344322345,-68.57142857142857,52.55189255189255
-20.12210012210012,-49.42612942612943,-0.5860805860805861,-5.665445665445666,-45.90964590964591,3.711843711843712,-11.526251526251526,-22.466422466422465,-112.72283272283272,18.168498168498168,-7.228327228327228,52.55189255189255,-121.31868131868131,-139.29181929181928,79.12087912087912,131.86813186813185,65.05494505494505,35.36019536019536,0.9768009768009768,5.665445665445666,-205.71428571428572,-86.15384615384616,79.12087912087912
-18.55921855921856,-48.64468864468864,-2.148962148962149,0.9768009768009768,-39.65811965811966,5.665445665445666,-11.526251526251526,-23.247863247863247,-85.37240537240537,12.307692307692308,-23.247863247863247,60.366300366300365,-74.43223443223444,-171.33089133089132,63.101343101343105,146.32478632478632,68.57142857142857,28.71794871794872,2.5396825396825395,0.19536019536019536,-205.71428571428572,-75.6043956043956,63.101343101343105
-15.433455433455434,-44.737484737484735,-2.93040293040293,5.274725274725275,-33.40659340659341,8.791208791208792,-8.4004884004884,-25.982905982905983,-79.51159951159951,16.605616605616607,-25.982905982905983,57.24053724053724,-52.55189255189255,-183.05250305250306,50.20757020757021,153.35775335775335,77.94871794871794,22.857142857142858,3.3211233211233213,-2.5396825396825395,-200.63492063492063,-82.63736263736264,50.20757020757021
-16.214896214896214,-42.78388278388278,-6.837606837606837,18.55921855921856,-28.71794871794872,6.056166056166056,-8.4004884004884,-16.605616605616607,-77.94871794871794,26.764346764346765,-32.62515262515262,62.31990231990232,-42.39316239316239,-153.35775335775335,10.354090354090355,163.5164835164835,86.93528693528694,12.307692307692308,7.228327228327228,-10.354090354090355,-182.66178266178267,-64.66422466422466,10.354090354090355
-16.214896214896214,-36.92307692307692,-3.711843711843712,15.433455433455434,-19.34065934065934,10.354090354090355,-11.526251526251526,-21.294261294261293,-47.863247863247864,31.843711843711844,-42.78388278388278,50.20757020757021,-72.86935286935287,-69.35286935286935,-18.55921855921856,152.96703296703296,93.57753357753357,-1.7582417582417582,4.102564102564102,-24.02930402930403,-198.6813186813187,0.9768009768009768,-18.55921855921856
-11.135531135531135,-29.89010989010989,-0.9768009768009768,6.446886446886447,-5.665445665445666,19.34065934065934,-12.307692307692308,-37.704517704517706,-21.294261294261293,31.843711843711844,-36.14163614163614,33.40659340659341,-87.71672771672772,4.102564102564102,-68.57142857142857,159.6092796092796,101.39194139194139,-15.042735042735043,1.3675213675213675,-23.63858363858364,-217.43589743589743,56.84981684981685,-68.57142857142857
-8.00976800976801,-25.982905982905983,-3.711843711843712,7.619047619047619,8.791208791208792,27.155067155067155,-23.247863247863247,-43.17460317460318,2.5396825396825395,27.155067155067155,-35.75091575091575,5.274725274725275,-76.77655677655677,-15.042735042735043,-66.22710622710623,157.65567765567766,97.87545787545787,-33.40659340659341,4.102564102564102,-23.247863247863247,-224.85958485958486,44.346764346764346,-66.22710622710623
-7.228327228327228,-21.294261294261293,-5.665445665445666,6.056166056166056,20.512820512820515,31.45299145299145,-30.671550671550673,-50.598290598290596,34.18803418803419,39.65811965811966,-56.45909645909646,-27.545787545787547,-80.29304029304029,-37.313797313797316,-35.75091575091575,142.8083028083028,93.57753357753357,-52.94261294261294,6.056166056166056,-30.671550671550673,-220.56166056166057,14.261294261294262,-35.75091575091575
-0.5860805860805861,-19.34065934065934,-5.274725274725275,2.5396825396825395,38.485958485958484,32.234432234432234,-31.062271062271062,-63.492063492063494,51.77045177045177,45.12820512820513,-52.16117216117216,-38.485958485958484,-56.84981684981685,-16.996336996336996,-63.492063492063494,144.37118437118437,92.7960927960928,-63.88278388278388,5.665445665445666,-22.466422466422465,-211.57509157509156,31.843711843711844,-63.492063492063494
0.5860805860805861,-16.996336996336996,-5.665445665445666,1.7582417582417582,50.989010989010985,31.45299145299145,-33.01587301587302,-70.52503052503053,55.28693528693529,51.77045177045177,-50.989010989010985,-52.55189255189255,6.837606837606837,-92.4053724053724,-53.333333333333336,142.8083028083028,83.41880341880342,-72.08791208791209,6.056166056166056,-21.294261294261293,-167.03296703296704,-22.075702075702075,-53.333333333333336
-3.711843711843712,-6.446886446886447,-6.446886446886447,-5.665445665445666,57.24053724053724,27.936507936507937,-39.65811965811966,-70.13431013431014,67.00854700854701,58.02197802197802,-73.26007326007326,-81.46520146520146,-36.92307692307692,-55.28693528693529,-51.37973137973138,115.06715506715507,65.83638583638583,-87.32600732600733,6.837606837606837,-40.43956043956044,-145.93406593406593,-23.63858363858364,-51.37973137973138
-6.837606837606837,4.493284493284493,-0.9768009768009768,-24.42002442002442,68.18070818070818,24.42002442002442,-41.61172161172161,-80.29304029304029,99.04761904761905,33.7973137973138,-86.93528693528694,-102.56410256410257,-86.54456654456655,3.3211233211233213,-70.52503052503053,97.48473748473748,45.51892551892552,-99.04761904761905,1.3675213675213675,-52.55189255189255,-125.61660561660561,-16.996336996336996,-70.52503052503053
-11.526251526251526,6.446886446886447,-0.19536019536019536,-33.40659340659341,72.47863247863248,12.698412698412698,-41.221001221001224,-84.59096459096459,91.23321123321124,15.824175824175825,-88.1074481074481,-108.42490842490842,-79.12087912087912,-2.148962148962149,-106.86202686202687,99.43833943833944,18.94993894993895,-106.47130647130648,0.5860805860805861,-45.12820512820513,-115.84859584859585,-14.652014652014651,-106.86202686202687
-18.168498168498168,10.744810744810744,-0.19536019536019536,-45.90964590964591,76.38583638583638,-0.19536019536019536,-43.17460317460318,-86.54456654456655,105.68986568986568,-14.261294261294262,-106.86202686202687,-123.27228327228327,-27.155067155067155,-67.3992673992674,-130.6959706959707,86.54456654456655,-9.572649572649572,-122.88156288156289,0.5860805860805861,-49.03540903540904,-99.04761904761905,-12.307692307692308,-130.6959706959707
-21.294261294261293,17.387057387057386,2.93040293040293,-63.492063492063494,81.07448107448107,-9.181929181929181,-46.69108669108669,-89.67032967032966,106.08058608058609,-21.294261294261293,-118.58363858363859,-133.82173382173383,-23.63858363858364,-72.47863247863248,-138.9010989010989,67.3992673992674,-31.843711843711844,-134.993894993895,-2.5396825396825395,-54.114774114774114,-53.724053724053725,-46.3003663003663,-138.9010989010989
-24.81074481074481,18.55921855921856,1.3675213675213675,-67.00854700854701,81.85592185592185,-17.387057387057386,-52.16117216117216,-84.2002442002442,94.74969474969475,-25.592185592185594,-119.36507936507937,-139.29181929181928,2.93040293040293,-47.081807081807085,-190.0854700854701,44.346764346764346,-54.114774114774114,-142.41758241758242,-0.9768009768009768,-53.333333333333336,-54.89621489621489,22.857142857142858,-190.0854700854701
-27.936507936507937,22.857142857142858,0.9768009768009768,-75.21367521367522,86.15384615384616,-25.2014652014652,-55.28693528693529,-83.80952380952381,94.35897435897436,-28.71794871794872,-130.3052503052503,-157.65567765567766,14.261294261294262,-42.39316239316239,-208.05860805860806,13.089133089133089,-76.77655677655677,-151.7948717948718,-0.5860805860805861,-59.584859584859586,-21.294261294261293,32.234432234432234,-208.05860805860806
-31.843711843711844,21.684981684981686,-3.3211233211233213,-77.94871794871794,85.76312576312576,-38.095238095238095,-60.757020757020754,-77.94871794871794,108.81562881562881,-25.592185592185594,-161.17216117216117,-167.03296703296704,-30.671550671550673,-1.3675213675213675,-209.23076923076923,-3.3211233211233213,-96.31257631257631,-168.2051282051282,3.711843711843712,-62.71062271062271,-28.71794871794872,52.94261294261294,-209.23076923076923
-34.57875457875458,17.387057387057386,-8.791208791208792,-83.41880341880342,82.63736263736264,-52.55189255189255,-63.101343101343105,-76.38583638583638,116.23931623931624,-37.313797313797316,-176.01953601953602,-168.98656898656898,-36.53235653235653,20.903540903540904,-231.5018315018315,-19.731379731379732,-116.63003663003663,-177.58241758241758,9.181929181929181,-59.1941391941392,-30.671550671550673,86.93528693528694,-231.5018315018315
-44.737484737484735,9.963369963369964,-15.433455433455434,-82.24664224664225,71.30647130647131,-77.16727716727716,-61.14774114774115,-65.05494505494505,107.64346764346764,-67.00854700854701,-183.44322344322345,-176.01953601953602,-9.572649572649572,17.77777777777778,-279.56043956043953,-47.863247863247864,-140.0732600732601,-187.74114774114773,15.824175824175825,-64.27350427350427,4.884004884004884,117.02075702075702,-279.56043956043953
-47.472527472527474,6.446886446886447,-25.2014652014652,-91.23321123321124,61.53846153846154,-93.18681318681318,-56.84981684981685,-68.57142857142857,89.27960927960928,-75.21367521367522,-179.14529914529913,-188.13186813186815,-14.652014652014651,21.294261294261293,-290.1098901098901,-70.13431013431014,-154.13919413919413,-188.52258852258853,25.592185592185594,-59.1941391941392,23.247863247863247,107.64346764346764,-290.1098901098901
-44.737484737484735,2.148962148962149,-33.01587301587302,-102.95482295482296,54.114774114774114,-99.43833943833944,-58.02197802197802,-75.6043956043956,68.18070818070818,-89.27960927960928,-165.47008547008548,-181.8803418803419,4.102564102564102,-35.75091575091575,-261.97802197802196,-75.21367521367522,-167.81440781440782,-182.66178266178267,33.40659340659341,-43.956043956043956,38.095238095238095,55.28693528693529,-261.97802197802196
-40.04884004884005,-6.056166056166056,-43.17460317460318,-104.12698412698413,48.64468864468864,-105.68986568986568,-61.53846153846154,-75.995115995116,52.16117216117216,-102.56410256410257,-157.26495726495727,-170.54945054945054,0.19536019536019536,-31.45299145299145,-273.3089133089133,-74.43223443223444,-183.44322344322345,-176.4102564102564,43.56532356532357,-29.89010989010989,39.26739926739927,59.1941391941392,-273.3089133089133
-42.39316239316239,-8.791208791208792,-52.16117216117216,-109.2063492063492,36.14163614163614,-113.11355311355311,-63.88278388278388,-73.65079365079364,39.65811965811966,-96.7032967032967,-166.25152625152626,-183.83394383394383,-23.247863247863247,-65.44566544566544,-231.5018315018315,-86.93528693528694,-195.16483516483515,-170.94017094017093,52.55189255189255,-25.982905982905983,42.39316239316239,2.5396825396825395,-231.5018315018315
-43.56532356532357,-13.870573870573871,-60.757020757020754,-110.76923076923077,24.42002442002442,-120.53724053724054,-67.00854700854701,-68.57142857142857,50.989010989010985,-104.9084249084249,-188.13186813186815,-191.25763125763126,-18.55921855921856,-117.4114774114774,-199.46275946275946,-97.09401709401709,-206.1050061050061,-162.34432234432234,61.14774114774115,-24.81074481074481,20.903540903540904,-10.354090354090355,-199.46275946275946
-43.17460317460318,-21.684981684981686,-65.05494505494505,-112.72283272283272,16.214896214896214,-128.35164835164835,-60.757020757020754,-72.08791208791209,58.02197802197802,-120.92796092796092,-193.2112332112332,-181.4896214896215,-36.92307692307692,-89.67032967032966,-218.998778998779,-90.84249084249085,-213.52869352869354,-147.88766788766787,65.44566544566544,-11.135531135531135,7.619047619047619,16.214896214896214,-218.998778998779
-44.737484737484735,-29.10866910866911,-70.52503052503053,-114.28571428571429,4.102564102564102,-136.55677655677655,-54.89621489621489,-72.47863247863248,40.43956043956044,-122.88156288156289,-187.35042735042734,-179.9267399267399,-40.04884004884005,-63.88278388278388,-252.6007326007326,-92.4053724053724,-218.998778998779,-133.82173382173383,70.91575091575092,-2.5396825396825395,17.387057387057386,31.062271062271062,-252.6007326007326
-46.69108669108669,-29.10866910866911,-74.43223443223444,-117.8021978021978,-6.056166056166056,-137.72893772893772,-54.505494505494504,-69.74358974358974,23.247863247863247,-118.97435897435898,-180.31746031746033,-187.35042735042734,-57.24053724053724,-18.94993894993895,-267.83882783882785,-118.1929181929182,-220.56166056166057,-127.57020757020757,74.82295482295483,-9.181929181929181,9.572649572649572,78.33943833943835,-267.83882783882785
-48.25396825396825,-32.62515262515262,-80.29304029304029,-117.4114774114774,-18.55921855921856,-137.72893772893772,-56.06837606837607,-66.22710622710623,-2.148962148962149,-114.28571428571429,-168.5958485958486,-180.31746031746033,-76.38583638583638,15.433455433455434,-277.997557997558,-127.57020757020757,-218.998778998779,-121.7094017094017,80.68376068376068,-7.619047619047619,23.247863247863247,86.54456654456655,-277.997557997558
-45.51892551892552,-40.43956043956044,-89.27960927960928,-105.68986568986568,-27.155067155067155,-139.68253968253967,-52.55189255189255,-61.14774114774115,-22.857142857142858,-96.7032967032967,-167.81440781440782,-172.8937728937729,-81.07448107448107,13.870573870573871,-272.5274725274725,-122.1001221001221,-213.52869352869354,-116.23931623931624,89.67032967032966,4.102564102564102,20.12210012210012,73.65079365079364,-272.5274725274725
-40.43956043956044,-42.39316239316239,-93.96825396825396,-104.9084249084249,-33.40659340659341,-134.993894993895,-49.42612942612943,-64.27350427350427,-24.81074481074481,-81.85592185592185,-174.45665445665446,-175.62881562881563,-84.59096459096459,0.19536019536019536,-241.66056166056165,-131.08669108669108,-206.1050061050061,-109.98778998778998,94.35897435897436,10.354090354090355,12.698412698412698,56.45909645909646,-241.66056166056165
-34.57875457875458,-43.56532356532357,-99.04761904761905,-105.68986568986568,-39.65811965811966,-126.7887667887668,-52.94261294261294,-63.88278388278388,-27.155067155067155,-88.4981684981685,-167.03296703296704,-162.73504273504273,-84.2002442002442,6.446886446886447,-231.5018315018315,-137.33821733821733,-199.46275946275946,-104.12698412698413,99.43833943833944,18.168498168498168,-10.744810744810744,75.21367521367522,-231.5018315018315
-33.7973137973138,-50.598290598290596,-104.9084249084249,-97.87545787545787,-54.114774114774114,-123.66300366300366,-55.67765567765568,-53.724053724053725,-59.584859584859586,-95.14041514041514,-149.84126984126985,-141.63614163614164,-74.04151404151405,-18.94993894993895,-215.48229548229548,-137.72893772893772,-193.99267399267399,-98.65689865689866,105.2991452991453,29.499389499389498,8.791208791208792,34.18803418803419,-215.48229548229548
-31.45299145299145,-54.505494505494504,-105.2991452991453,-91.23321123321124,-65.44566544566544,-118.1929181929182,-54.89621489621489,-44.737484737484735,-63.88278388278388,-74.04151404151405,-152.18559218559218,-140.85470085470087,-69.35286935286935,47.081807081807085,-244.7863247863248,-165.86080586080587,-182.66178266178267,-97.48473748473748,105.68986568986568,27.155067155067155,0.19536019536019536,112.33211233211233,-244.7863247863248
-25.592185592185594,-57.63125763125763,-105.68986568986568,-86.54456654456655,-73.65079365079364,-115.84859584859585,-55.28693528693529,-31.45299145299145,-72.86935286935287,-77.16727716727716,-140.0732600732601,-121.31868131868131,-34.18803418803419,17.387057387057386,-224.46886446886447,-170.94017094017093,-171.33089133089132,-101.39194139194139,106.08058608058609,25.982905982905983,19.34065934065934,91.62393162393163,-224.46886446886447
-25.982905982905983,-70.91575091575092,-108.42490842490842,-61.14774114774115,-87.32600732600733,-123.66300366300366,-56.06837606837607,-1.7582417582417582,-92.4053724053724,-56.84981684981685,-148.2783882783883,-91.23321123321124,-55.67765567765568,1.7582417582417582,-165.86080586080587,-169.76800976800976,-159.21855921855922,-109.2063492063492,108.81562881562881,21.684981684981686,48.64468864468864,34.57875457875458,-165.86080586080587
-11.916971916971917,-68.57142857142857,-104.12698412698413,-61.14774114774115,-79.12087912087912,-114.67643467643468,-47.081807081807085,-6.056166056166056,-75.6043956043956,-18.55921855921856,-158.82783882783883,-97.09401709401709,-40.04884004884005,31.062271062271062,-155.3113553113553,-187.35042735042734,-142.8083028083028,-101.39194139194139,104.51770451770452,27.545787545787547,36.92307692307692,56.84981684981685,-155.3113553113553
-0.5860805860805861,-62.71062271062271,-99.82905982905983,-63.492063492063494,-73.65079365079364,-102.56410256410257,-42.002442002442,-8.791208791208792,-71.30647130647131,-8.00976800976801,-144.76190476190476,-96.31257631257631,-30.671550671550673,73.65079365079364,-167.03296703296704,-197.11843711843713,-133.82173382173383,-92.01465201465201,100.21978021978022,33.7973137973138,25.592185592185594,90.06105006105007,-167.03296703296704
11.526251526251526,-62.71062271062271,-96.31257631257631,-62.31990231990232,-65.83638583638583,-88.4981684981685,-43.56532356532357,-11.526251526251526,-84.2002442002442,-6.056166056166056,-122.4908424908425,-63.88278388278388,-18.168498168498168,75.6043956043956,-161.17216117216117,-173.67521367521368,-130.3052503052503,-78.33943833943835,96.7032967032967,54.89621489621489,17.387057387057386,77.16727716727716,-161.17216117216117
22.857142857142858,-58.02197802197802,-89.27960927960928,-59.584859584859586,-56.84981684981685,-75.6043956043956,-39.65811965811966,-11.916971916971917,-95.92185592185592,17.387057387057386,-106.47130647130648,-40.04884004884005,15.433455433455434,121.31868131868131,-202.1978021978022,-160.3907203907204,-122.88156288156289,-63.492063492063494,89.67032967032966,67.78998778998779,41.221001221001224,96.31257631257631,-202.1978021978022
22.857142857142858,-50.598290598290596,-81.07448107448107,-57.24053724053724,-54.505494505494504,-65.44566544566544,-40.83028083028083,-4.493284493284493,-95.92185592185592,10.744810744810744,-98.26617826617827,-36.92307692307692,65.05494505494505,106.86202686202687,-218.2173382173382,-175.62881562881563,-120.92796092796092,-61.53846153846154,81.46520146520146,61.14774114774115,36.92307692307692,146.32478632478632,-218.2173382173382
17.387057387057386,-45.90964590964591,-71.6971916971917,-44.346764346764346,-57.24053724053724,-59.584859584859586,-40.83028083028083,13.089133089133089,-90.84249084249085,-5.274725274725275,-86.93528693528694,-13.47985347985348,11.526251526251526,79.12087912087912,-114.28571428571429,-174.45665445665446,-115.84859584859585,-56.84981684981685,72.08791208791209,52.16117216117216,50.20757020757021,59.975579975579976,-114.28571428571429
14.652014652014651,-40.04884004884005,-57.63125763125763,-33.01587301587302,-56.84981684981685,-47.863247863247864,-29.499389499389498,18.168498168498168,-76.38583638583638,31.45299145299145,-94.35897435897436,7.228327228327228,25.592185592185594,67.00854700854701,-59.975579975579976,-165.47008547008548,-97.09401709401709,-41.61172161172161,58.02197802197802,54.114774114774114,36.53235653235653,56.06837606837607,-59.975579975579976
9.572649572649572,-31.843711843711844,-45.90964590964591,-24.42002442002442,-62.31990231990232,-31.843711843711844,-20.512820512820515,22.075702075702075,-68.57142857142857,48.64468864468864,-80.68376068376068,20.12210012210012,18.94993894993895,105.68986568986568,-45.90964590964591,-160.0,-76.38583638583638,-25.2014652014652,46.3003663003663,54.505494505494504,17.387057387057386,90.06105006105007,-45.90964590964591
